# E(MeV)  S_GAMTGAMT(K=0) for _V53_DDPCX
-2.84578000 2.60320000e-03
-2.81578000 2.83367000e-03
-2.78578000 3.06399000e-03
-2.75578000 3.16937000e-03
-2.72578000 3.25981000e-03
-2.69578000 3.39964000e-03
-2.66578000 3.57476000e-03
-2.63578000 3.77486000e-03
-2.60578000 3.99666000e-03
-2.57578000 4.24023000e-03
-2.54578000 4.50732000e-03
-2.51578000 4.80077000e-03
-2.47998000 5.19079000e-03
-2.44998000 5.55652000e-03
-2.41998000 5.96409000e-03
-2.38998000 6.42088000e-03
-2.35998000 6.93598000e-03
-2.32998000 7.52071000e-03
-2.29998000 8.18923000e-03
-2.26998000 8.95953000e-03
-2.23998000 9.85460000e-03
-2.20998000 1.09043000e-02
-2.17998000 1.21480000e-02
-2.14998000 1.36383000e-02
-2.11417000 1.58414000e-02
-2.08417000 1.81632000e-02
-2.05417000 2.10781000e-02
-2.02417000 2.48086000e-02
-1.99417000 2.96910000e-02
-1.96417000 3.62524000e-02
-1.93417000 4.53535000e-02
-1.90417000 5.84724000e-02
-1.87417000 7.82996000e-02
-1.84417000 1.10086000e-01
-1.81417000 1.64906000e-01
-1.78417000 2.67777000e-01
-1.74837000 5.31068000e-01
-1.71837000 8.88263000e-01
-1.68837000 9.08807000e-01
-1.65837000 5.53632000e-01
-1.62837000 3.09213000e-01
-1.59837000 1.86480000e-01
-1.56837000 1.22627000e-01
-1.53837000 8.65736000e-02
-1.50837000 6.47129000e-02
-1.47837000 5.07743000e-02
-1.44837000 4.17028000e-02
-1.41837000 3.60470000e-02
-1.38256000 3.32988000e-02
-1.35256000 3.53569000e-02
-1.32256000 4.22907000e-02
-1.29256000 4.36817000e-02
-1.26256000 3.24949000e-02
-1.23256000 2.33096000e-02
-1.20256000 1.81699000e-02
-1.17256000 1.51502000e-02
-1.14256000 1.31890000e-02
-1.11256000 1.18079000e-02
-1.08256000 1.07780000e-02
-1.05256000 9.97908000e-03
-1.01676000 9.23405000e-03
-0.98675600 8.73693000e-03
-0.95675600 8.32777000e-03
-0.92675600 7.98886000e-03
-0.89675600 7.70751000e-03
-0.86675600 7.47442000e-03
-0.83675600 7.28266000e-03
-0.80675600 7.12706000e-03
-0.77675600 7.00379000e-03
-0.74675600 6.91015000e-03
-0.71675600 6.84448000e-03
-0.68675600 6.80610000e-03
-0.65095100 6.79682000e-03
-0.62095100 6.82219000e-03
-0.59095100 6.88262000e-03
-0.56095100 6.98657000e-03
-0.53095100 7.14913000e-03
-0.50095100 7.39801000e-03
-0.47095100 7.78697000e-03
-0.44095100 8.42792000e-03
-0.41095100 9.57110000e-03
-0.38095100 1.17745000e-02
-0.35095100 1.57111000e-02
-0.32095100 1.83379000e-02
-0.28514600 1.43748000e-02
-0.25514600 1.14776000e-02
-0.22514600 1.01489000e-02
-0.19514600 9.63509000e-03
-0.16514600 9.53753000e-03
-0.13514600 9.69159000e-03
-0.10514600 1.00356000e-02
-0.07514550 1.05581000e-02
-0.04514550 1.12803000e-02
-0.01514550 1.22545000e-02
0.01485450 1.35746000e-02
0.04485450 1.54005000e-02
0.08065970 1.86425000e-02
0.11066000 2.28846000e-02
0.14066000 2.96892000e-02
0.17066000 4.14624000e-02
0.20066000 6.36653000e-02
0.23066000 1.07892000e-01
0.26066000 1.79037000e-01
0.29066000 1.93210000e-01
0.32066000 1.23755000e-01
0.35066000 7.24796000e-02
0.38066000 4.66966000e-02
0.41066000 3.34614000e-02
0.44646500 2.51049000e-02
0.47646500 2.11462000e-02
0.50646500 1.86626000e-02
0.53646500 1.70642000e-02
0.56646500 1.60316000e-02
0.59646500 1.53815000e-02
0.62646500 1.50046000e-02
0.65646500 1.48332000e-02
0.68646500 1.48251000e-02
0.71646500 1.49543000e-02
0.74646500 1.52058000e-02
0.77646500 1.55730000e-02
