# E(MeV)  S_NSDRNSDR(K=0) for _V53_DDPCX
-2.84578000 -4.79224000e-03
-2.81578000 -4.73246000e-03
-2.78578000 -4.67307000e-03
-2.75578000 -4.61406000e-03
-2.72578000 -4.55543000e-03
-2.69578000 -4.49717000e-03
-2.66578000 -4.43928000e-03
-2.63578000 -4.38175000e-03
-2.60578000 -4.32458000e-03
-2.57578000 -4.26776000e-03
-2.54578000 -4.21129000e-03
-2.51578000 -4.15516000e-03
-2.47998000 -4.08861000e-03
-2.44998000 -4.03321000e-03
-2.41998000 -3.97814000e-03
-2.38998000 -3.92339000e-03
-2.35998000 -3.86897000e-03
-2.32998000 -3.81485000e-03
-2.29998000 -3.76104000e-03
-2.26998000 -3.70754000e-03
-2.23998000 -3.65434000e-03
-2.20998000 -3.60144000e-03
-2.17998000 -3.54883000e-03
-2.14998000 -3.49651000e-03
-2.11417000 -3.43443000e-03
-2.08417000 -3.38273000e-03
-2.05417000 -3.33130000e-03
-2.02417000 -3.28014000e-03
-1.99417000 -3.22925000e-03
-1.96417000 -3.17863000e-03
-1.93417000 -3.12826000e-03
-1.90417000 -3.07815000e-03
-1.87417000 -3.02830000e-03
-1.84417000 -2.97869000e-03
-1.81417000 -2.92933000e-03
-1.78417000 -2.88022000e-03
-1.74837000 -2.82191000e-03
-1.71837000 -2.77331000e-03
-1.68837000 -2.72495000e-03
-1.65837000 -2.67681000e-03
-1.62837000 -2.62890000e-03
-1.59837000 -2.58120000e-03
-1.56837000 -2.53373000e-03
-1.53837000 -2.48647000e-03
-1.50837000 -2.43943000e-03
-1.47837000 -2.39259000e-03
-1.44837000 -2.34596000e-03
-1.41837000 -2.29953000e-03
-1.38256000 -2.24438000e-03
-1.35256000 -2.19839000e-03
-1.32256000 -2.15259000e-03
-1.29256000 -2.10698000e-03
-1.26256000 -2.06156000e-03
-1.23256000 -2.01632000e-03
-1.20256000 -1.97126000e-03
-1.17256000 -1.92638000e-03
-1.14256000 -1.88168000e-03
-1.11256000 -1.83715000e-03
-1.08256000 -1.79280000e-03
-1.05256000 -1.74861000e-03
-1.01676000 -1.69608000e-03
-0.98675600 -1.65225000e-03
-0.95675600 -1.60857000e-03
-0.92675600 -1.56506000e-03
-0.89675600 -1.52169000e-03
-0.86675600 -1.47848000e-03
-0.83675600 -1.43542000e-03
-0.80675600 -1.39250000e-03
-0.77675600 -1.34973000e-03
-0.74675600 -1.30710000e-03
-0.71675600 -1.26460000e-03
-0.68675600 -1.22224000e-03
-0.65095100 -1.17186000e-03
-0.62095100 -1.12979000e-03
-0.59095100 -1.08785000e-03
-0.56095100 -1.04603000e-03
-0.53095100 -1.00433000e-03
-0.50095100 -9.62755000e-04
-0.47095100 -9.21296000e-04
-0.44095100 -8.79951000e-04
-0.41095100 -8.38719000e-04
-0.38095100 -7.97596000e-04
-0.35095100 -7.56581000e-04
-0.32095100 -7.15669000e-04
-0.28514600 -6.66974000e-04
-0.25514600 -6.26282000e-04
-0.22514600 -5.85686000e-04
-0.19514600 -5.45183000e-04
-0.16514600 -5.04771000e-04
-0.13514600 -4.64446000e-04
-0.10514600 -4.24205000e-04
-0.07514550 -3.84046000e-04
-0.04514550 -3.43966000e-04
-0.01514550 -3.03962000e-04
0.01485450 -2.64030000e-04
0.04485450 -2.24168000e-04
0.08065970 -1.76678000e-04
0.11066000 -1.36956000e-04
0.14066000 -9.72931000e-05
0.17066000 -5.76846000e-05
0.20066000 -1.81270000e-05
0.23066000 2.13835000e-05
0.26066000 6.08512000e-05
0.29066000 1.00280000e-04
0.32066000 1.39676000e-04
0.35066000 1.79042000e-04
0.38066000 2.18385000e-04
0.41066000 2.57710000e-04
0.44646500 3.04628000e-04
0.47646500 3.43934000e-04
0.50646500 3.83242000e-04
0.53646500 4.22560000e-04
0.56646500 4.61895000e-04
0.59646500 5.01257000e-04
0.62646500 5.40654000e-04
0.65646500 5.80099000e-04
0.68646500 6.19601000e-04
0.71646500 6.59174000e-04
0.74646500 6.98832000e-04
0.77646500 7.38592000e-04
