# E(MeV)  S_GAMTGAMT(K=1) for _V53_DDPCX
-2.84578000 3.27809000e-02
-2.81578000 2.86678000e-02
-2.78578000 2.53387000e-02
-2.75578000 2.26326000e-02
-2.72578000 2.04270000e-02
-2.69578000 1.86282000e-02
-2.66578000 1.71640000e-02
-2.63578000 1.59782000e-02
-2.60578000 1.50271000e-02
-2.57578000 1.42768000e-02
-2.54578000 1.37013000e-02
-2.51578000 1.32804000e-02
-2.47998000 1.29604000e-02
-2.44998000 1.28332000e-02
-2.41998000 1.28283000e-02
-2.38998000 1.29432000e-02
-2.35998000 1.31793000e-02
-2.32998000 1.35414000e-02
-2.29998000 1.40383000e-02
-2.26998000 1.46832000e-02
-2.23998000 1.54951000e-02
-2.20998000 1.64995000e-02
-2.17998000 1.77311000e-02
-2.14998000 1.92359000e-02
-2.11417000 2.14776000e-02
-2.08417000 2.38310000e-02
-2.05417000 2.67473000e-02
-2.02417000 3.03998000e-02
-1.99417000 3.50374000e-02
-1.96417000 4.10261000e-02
-1.93417000 4.89210000e-02
-1.90417000 5.95945000e-02
-1.87417000 7.44761000e-02
-1.84417000 9.60284000e-02
-1.81417000 1.28752000e-01
-1.78417000 1.81470000e-01
-1.74837000 2.97944000e-01
-1.71837000 4.94693000e-01
-1.68837000 8.86339000e-01
-1.65837000 1.46001000e+00
-1.62837000 1.43741000e+00
-1.59837000 8.61922000e-01
-1.56837000 4.82397000e-01
-1.53837000 2.92167000e-01
-1.50837000 1.92638000e-01
-1.47837000 1.36026000e-01
-1.44837000 1.01344000e-01
-1.41837000 7.88030000e-02
-1.38256000 6.10893000e-02
-1.35256000 5.09832000e-02
-1.32256000 4.36859000e-02
-1.29256000 3.83729000e-02
-1.26256000 3.45413000e-02
-1.23256000 3.18925000e-02
-1.20256000 3.02749000e-02
-1.17256000 2.96648000e-02
-1.14256000 3.01841000e-02
-1.11256000 3.21702000e-02
-1.08256000 3.63485000e-02
-1.05256000 4.42494000e-02
-1.01676000 6.35028000e-02
-0.98675600 9.77673000e-02
-0.95675600 1.65286000e-01
-0.92675600 2.42616000e-01
-0.89675600 2.04801000e-01
-0.86675600 1.22996000e-01
-0.83675600 7.71823000e-02
-0.80675600 5.66978000e-02
-0.77675600 5.08293000e-02
-0.74675600 5.51551000e-02
-0.71675600 5.44262000e-02
-0.68675600 3.98651000e-02
-0.65095100 2.70046000e-02
-0.62095100 2.14489000e-02
-0.59095100 1.82697000e-02
-0.56095100 1.63386000e-02
-0.53095100 1.51360000e-02
-0.50095100 1.44213000e-02
-0.47095100 1.40955000e-02
-0.44095100 1.41618000e-02
-0.41095100 1.47553000e-02
-0.38095100 1.62522000e-02
-0.35095100 1.91330000e-02
-0.32095100 2.12352000e-02
-0.28514600 1.87364000e-02
-0.25514600 1.70661000e-02
-0.22514600 1.66977000e-02
-0.19514600 1.71134000e-02
-0.16514600 1.80645000e-02
-0.13514600 1.94926000e-02
-0.10514600 2.14422000e-02
-0.07514550 2.40369000e-02
-0.04514550 2.74907000e-02
-0.01514550 3.21508000e-02
0.01485450 3.85855000e-02
0.04485450 4.77588000e-02
0.08065970 6.47835000e-02
0.11066000 8.82846000e-02
0.14066000 1.28326000e-01
0.17066000 2.02518000e-01
0.20066000 3.49767000e-01
0.23066000 6.10178000e-01
0.26066000 7.50355000e-01
0.29066000 5.16339000e-01
0.32066000 3.01421000e-01
0.35066000 1.97878000e-01
0.38066000 1.60058000e-01
0.41066000 1.67990000e-01
0.44646500 2.07264000e-01
0.47646500 1.76198000e-01
0.50646500 1.29842000e-01
0.53646500 1.17100000e-01
0.56646500 1.09336000e-01
0.59646500 7.87151000e-02
0.62646500 5.41669000e-02
0.65646500 4.06379000e-02
0.68646500 3.30738000e-02
0.71646500 2.86320000e-02
0.74646500 2.60521000e-02
0.77646500 2.48106000e-02
