# E(MeV)  S_GAMTGAMT(Total=K0+2*K1) for Ac256_DDPCX
-10.26180000 7.89478000e-03
-10.23180000 7.89852000e-03
-10.20180000 7.93383000e-03
-10.17180000 8.00513000e-03
-10.14180000 8.06532000e-03
-10.11180000 8.11322000e-03
-10.08180000 8.15488000e-03
-10.05180000 8.19318000e-03
-10.02180000 8.22932000e-03
-9.99180000 8.26355000e-03
-9.96180000 8.29564000e-03
-9.93180000 8.32474000e-03
-9.90180000 8.34896000e-03
-9.87180000 8.36428000e-03
-9.84180000 8.36167000e-03
-9.81180000 8.32056000e-03
-9.78180000 8.21012000e-03
-9.75180000 8.11735000e-03
-9.72180000 8.26833000e-03
-9.69180000 8.45832000e-03
-9.66180000 8.57807000e-03
-9.63180000 8.65687000e-03
-9.60180000 8.71667000e-03
-9.57180000 8.76731000e-03
-9.54180000 8.81313000e-03
-9.51180000 8.85626000e-03
-9.48180000 8.89782000e-03
-9.45180000 8.93843000e-03
-9.42180000 8.97845000e-03
-9.39180000 9.01812000e-03
-9.36180000 9.05759000e-03
-9.33180000 9.09696000e-03
-9.30180000 9.13628000e-03
-9.27180000 9.17565000e-03
-9.24180000 9.21506000e-03
-9.21180000 9.25457000e-03
-9.15439000 9.33050000e-03
-9.12439000 9.37039000e-03
-9.09439000 9.41045000e-03
-9.06439000 9.45068000e-03
-9.03439000 9.49110000e-03
-9.00439000 9.53171000e-03
-8.97439000 9.57251000e-03
-8.94439000 9.61353000e-03
-8.91439000 9.65477000e-03
-8.88439000 9.69622000e-03
-8.85439000 9.73791000e-03
-8.82439000 9.77983000e-03
-8.79439000 9.82201000e-03
-8.76439000 9.86441000e-03
-8.73439000 9.90708000e-03
-8.70439000 9.95000000e-03
-8.67439000 9.99319000e-03
-8.64439000 1.00366600e-02
-8.61439000 1.00803900e-02
-8.58439000 1.01244200e-02
-8.55439000 1.01687300e-02
-8.52439000 1.02133400e-02
-8.49439000 1.02582300e-02
-8.46439000 1.03034400e-02
-8.43439000 1.03489600e-02
-8.40439000 1.03948000e-02
-8.37439000 1.04409700e-02
-8.34439000 1.04874600e-02
-8.31439000 1.05342900e-02
-8.28439000 1.05814800e-02
-8.25439000 1.06290100e-02
-8.22439000 1.06769000e-02
-8.19439000 1.07251600e-02
-8.16439000 1.07738000e-02
-8.13439000 1.08228100e-02
-8.10439000 1.08722200e-02
-8.04699000 1.09679100e-02
-8.01699000 1.10185300e-02
-7.98699000 1.10695800e-02
-7.95699000 1.11210700e-02
-7.92699000 1.11730400e-02
-7.89699000 1.12254900e-02
-7.86699000 1.12784200e-02
-7.83699000 1.13318800e-02
-7.80699000 1.13858800e-02
-7.77699000 1.14404400e-02
-7.74699000 1.14955800e-02
-7.71699000 1.15513700e-02
-7.68699000 1.16078500e-02
-7.65699000 1.16650400e-02
-7.62699000 1.17230000e-02
-7.59699000 1.17818700e-02
-7.56699000 1.18417100e-02
-7.53699000 1.19026700e-02
-7.50699000 1.19649300e-02
-7.47699000 1.20287500e-02
-7.44699000 1.20945100e-02
-7.41699000 1.21627100e-02
-7.38699000 1.22341600e-02
-7.35699000 1.23100700e-02
-7.32699000 1.23924300e-02
-7.29699000 1.24847000e-02
-7.26699000 1.25931100e-02
-7.23699000 1.27298400e-02
-7.20699000 1.29205800e-02
-7.17699000 1.32234100e-02
-7.14699000 1.37642700e-02
-7.11699000 1.46330600e-02
-7.08699000 1.49773600e-02
-7.05699000 1.42741300e-02
-7.02699000 1.37197100e-02
-6.99699000 1.34721600e-02
-6.93958000 1.33597800e-02
-6.90958000 1.33747500e-02
-6.87958000 1.34113500e-02
-6.84958000 1.34610000e-02
-6.81958000 1.35191800e-02
-6.78958000 1.35834700e-02
-6.75958000 1.36525700e-02
-6.72958000 1.37260200e-02
-6.69958000 1.38042200e-02
-6.66958000 1.38886600e-02
-6.63958000 1.39773800e-02
-6.60958000 1.40560000e-02
-6.57958000 1.41305500e-02
-6.54958000 1.42115000e-02
-6.51958000 1.42980800e-02
-6.48958000 1.43892600e-02
-6.45958000 1.44853200e-02
-6.42958000 1.45879800e-02
-6.39958000 1.47014200e-02
-6.36958000 1.48315700e-02
-6.33958000 1.49618400e-02
-6.30958000 1.50629300e-02
-6.27958000 1.51624300e-02
-6.24958000 1.52536800e-02
-6.21958000 1.53551800e-02
-6.18958000 1.54735800e-02
-6.15958000 1.56059200e-02
-6.12958000 1.57517200e-02
-6.09958000 1.59131600e-02
-6.06958000 1.60950600e-02
-6.03958000 1.63062200e-02
-6.00958000 1.65631300e-02
-5.97958000 1.68990200e-02
-5.94958000 1.73855500e-02
-5.91958000 1.81598600e-02
-5.88958000 1.92193800e-02
-5.83217000 1.95672400e-02
-5.80217000 1.96644900e-02
-5.77217000 2.04458600e-02
-5.74217000 2.21650100e-02
-5.71217000 2.55563000e-02
-5.68217000 3.11315600e-02
-5.65217000 3.51574200e-02
-5.62217000 3.19798400e-02
-5.59217000 2.76278400e-02
-5.56217000 2.58957600e-02
-5.53217000 2.53179200e-02
-5.50217000 2.60830600e-02
-5.47217000 2.90583800e-02
-5.44217000 3.46748600e-02
-5.41217000 3.95287400e-02
-5.38217000 4.27615000e-02
-5.35217000 4.28273000e-02
-5.32217000 3.77092000e-02
-5.29217000 3.44503000e-02
-5.26217000 3.19853000e-02
-5.23217000 3.03726000e-02
-5.20217000 3.09232000e-02
-5.17217000 3.38792000e-02
-5.14217000 4.04524000e-02
-5.11217000 5.37644000e-02
-5.08217000 7.48353000e-02
-5.05217000 8.68313000e-02
-5.02217000 8.47244000e-02
-4.99217000 6.81103000e-02
-4.96217000 5.34232000e-02
-4.93217000 4.75846000e-02
-4.90217000 4.96215000e-02
-4.87217000 5.86941000e-02
-4.84217000 6.09672000e-02
-4.81217000 5.00282000e-02
-4.78217000 4.30621000e-02
-4.72476000 3.94495000e-02
-4.69476000 3.94154000e-02
-4.66476000 4.27667000e-02
-4.63476000 5.08623000e-02
-4.60476000 6.50797000e-02
-4.57476000 8.73856000e-02
-4.54476000 1.25736000e-01
-4.51476000 1.41691500e-01
-4.48476000 1.08844500e-01
-4.45476000 8.35947000e-02
-4.42476000 6.41787000e-02
-4.39476000 4.92602000e-02
-4.36476000 4.11430000e-02
-4.33476000 3.69156000e-02
-4.30476000 3.50585000e-02
-4.27476000 3.43347000e-02
-4.24476000 3.32435000e-02
-4.21476000 3.23210000e-02
-4.18476000 3.25651000e-02
-4.15476000 3.37050000e-02
-4.12476000 3.29906000e-02
-4.09476000 3.14818000e-02
-4.06476000 3.10644000e-02
-4.03476000 3.14068000e-02
-4.00476000 3.19528000e-02
-3.97476000 3.29236000e-02
-3.94476000 3.49280000e-02
-3.91476000 3.74382000e-02
-3.88476000 4.14076000e-02
-3.85476000 4.88840000e-02
-3.82476000 5.76236000e-02
-3.79476000 5.38797000e-02
-3.76476000 4.52026000e-02
-3.73476000 4.13030000e-02
-3.70476000 4.05124000e-02
-3.67476000 4.14171000e-02
-3.61736000 5.23727000e-02
-3.58736000 6.01916000e-02
-3.55736000 5.42573000e-02
-3.52736000 4.56946000e-02
-3.49736000 4.15732000e-02
-3.46736000 4.03749000e-02
-3.43736000 4.05916000e-02
-3.40736000 4.13967000e-02
-3.37736000 4.35685000e-02
-3.34736000 4.81248000e-02
-3.31736000 5.50132000e-02
-3.28736000 6.21485000e-02
-3.25736000 6.34778000e-02
-3.22736000 6.27439000e-02
-3.19736000 6.80144000e-02
-3.16736000 8.02480000e-02
-3.13736000 1.02480900e-01
-3.10736000 1.20820800e-01
-3.07736000 1.16079200e-01
-3.04736000 9.13123000e-02
-3.01736000 7.21639000e-02
-2.98736000 6.29113000e-02
-2.95736000 5.87140000e-02
-2.92736000 5.70833000e-02
-2.89736000 5.75726000e-02
-2.86736000 6.05489000e-02
-2.83736000 6.65112000e-02
-2.80736000 7.73195000e-02
-2.77736000 9.55696000e-02
-2.74736000 1.12931100e-01
-2.71736000 1.10540500e-01
-2.68736000 1.04654600e-01
-2.65736000 9.83286000e-02
-2.62736000 9.08863000e-02
-2.59736000 9.05872000e-02
-2.56736000 9.80193000e-02
-2.50995000 1.28483100e-01
-2.47995000 1.59653600e-01
-2.44995000 2.18747800e-01
-2.41995000 3.36985200e-01
-2.38995000 5.42228000e-01
-2.35995000 6.51613600e-01
-2.32995000 5.16405200e-01
-2.29995000 4.03196000e-01
-2.26995000 2.97056200e-01
-2.23995000 2.18988800e-01
-2.20995000 1.73470000e-01
-2.17995000 1.40763100e-01
-2.14995000 1.20444000e-01
-2.11995000 1.10831300e-01
-2.08995000 1.07587400e-01
-2.05995000 1.06031700e-01
-2.02995000 1.04046000e-01
-1.99995000 1.01605800e-01
-1.96995000 1.01711400e-01
-1.93995000 1.04637400e-01
-1.90995000 1.10146000e-01
-1.87995000 1.18507500e-01
-1.84995000 1.30158700e-01
-1.81995000 1.46069900e-01
-1.78995000 1.69821600e-01
-1.75995000 2.07789600e-01
-1.72995000 2.71605400e-01
-1.69995000 3.82445200e-01
-1.66995000 5.88312600e-01
-1.63995000 9.63105200e-01
-1.60995000 1.28597680e+00
-1.57995000 1.06082780e+00
-1.54995000 6.63233400e-01
-1.51995000 4.35784600e-01
-1.48995000 3.28700000e-01
-1.45995000 2.86461200e-01
-1.40254000 2.56222400e-01
-1.37254000 2.29088000e-01
-1.34254000 2.15769600e-01
-1.31254000 2.19213900e-01
-1.28254000 2.38891800e-01
-1.25254000 2.73904400e-01
-1.22254000 3.38730300e-01
-1.19254000 4.59217900e-01
-1.16254000 5.54592000e-01
-1.13254000 4.90977000e-01
-1.10254000 3.95104000e-01
-1.07254000 3.49326000e-01
-1.04254000 3.44142400e-01
-1.01254000 3.70261800e-01
-0.98254400 4.29487600e-01
-0.95254400 5.34643000e-01
-0.92254400 6.75352000e-01
-0.89254400 8.92756000e-01
-0.86254400 1.33973000e+00
-0.83254400 1.94176200e+00
-0.80254400 1.85342600e+00
-0.77254400 1.31304200e+00
-0.74254400 1.01745500e+00
-0.71254400 8.89662000e-01
-0.68254400 8.66731000e-01
-0.65254400 9.54046000e-01
-0.62254400 1.19182200e+00
-0.59254400 1.66107400e+00
-0.56254400 2.47937700e+00
-0.53254400 3.02507000e+00
-0.50254400 2.61814300e+00
-0.47254400 2.37983100e+00
-0.44254400 2.46238800e+00
-0.41254400 2.87314000e+00
-0.38254400 4.05630700e+00
-0.35254400 6.07504000e+00
-0.29513700 5.77136000e+00
-0.26513700 3.81427000e+00
-0.23513700 2.76858600e+00
-0.20513700 2.42170600e+00
-0.17513700 2.57898200e+00
-0.14513700 3.31393100e+00
-0.11513700 4.85914000e+00
-0.08513690 6.21503000e+00
-0.05513690 5.43700000e+00
-0.02513690 4.21516000e+00
0.00486311 3.77344000e+00
0.03486310 4.15619000e+00
0.06486310 5.30341000e+00
0.09486310 7.09184000e+00
0.12486300 9.95217000e+00
0.15486300 1.33637200e+01
0.18486300 1.49494700e+01
0.21486300 1.70353900e+01
0.24486300 2.16119400e+01
0.27486300 3.00329100e+01
0.30486300 2.91881300e+01
0.33486300 1.81950200e+01
0.36486300 1.06295900e+01
0.39486300 6.71796800e+00
0.42486300 4.66582400e+00
0.45486300 3.44356400e+00
0.48486300 2.56431800e+00
0.51486300 1.97362400e+00
0.54486300 1.57437300e+00
0.57486300 1.28709600e+00
0.60486300 1.07540200e+00
0.63486300 9.19583000e-01
0.66486300 8.00748000e-01
0.69486300 7.04848000e-01
0.72486300 6.26776000e-01
0.75486300 5.68141000e-01
