# E(MeV)  S_GAMTGAMT(K=1) for Ac256_DDPCX
-10.26180000 2.65665000e-03
-10.23180000 2.66933000e-03
-10.20180000 2.68176000e-03
-10.17180000 2.69398000e-03
-10.14180000 2.70598000e-03
-10.11180000 2.71777000e-03
-10.08180000 2.72932000e-03
-10.05180000 2.74056000e-03
-10.02180000 2.75142000e-03
-9.99180000 2.76172000e-03
-9.96180000 2.77118000e-03
-9.93180000 2.77929000e-03
-9.90180000 2.78505000e-03
-9.87180000 2.78643000e-03
-9.84180000 2.77888000e-03
-9.81180000 2.75211000e-03
-9.78180000 2.69069000e-03
-9.75180000 2.63812000e-03
-9.72180000 2.70742000e-03
-9.69180000 2.79623000e-03
-9.66180000 2.84991000e-03
-9.63180000 2.88311000e-03
-9.60180000 2.90680000e-03
-9.57180000 2.92589000e-03
-9.54180000 2.94256000e-03
-9.51180000 2.95787000e-03
-9.48180000 2.97237000e-03
-9.45180000 2.98638000e-03
-9.42180000 3.00007000e-03
-9.39180000 3.01356000e-03
-9.36180000 3.02693000e-03
-9.33180000 3.04022000e-03
-9.30180000 3.05346000e-03
-9.27180000 3.06670000e-03
-9.24180000 3.07993000e-03
-9.21180000 3.09318000e-03
-9.15439000 3.11861000e-03
-9.12439000 3.13196000e-03
-9.09439000 3.14536000e-03
-9.06439000 3.15881000e-03
-9.03439000 3.17232000e-03
-9.00439000 3.18589000e-03
-8.97439000 3.19952000e-03
-8.94439000 3.21322000e-03
-8.91439000 3.22699000e-03
-8.88439000 3.24083000e-03
-8.85439000 3.25475000e-03
-8.82439000 3.26874000e-03
-8.79439000 3.28282000e-03
-8.76439000 3.29697000e-03
-8.73439000 3.31121000e-03
-8.70439000 3.32553000e-03
-8.67439000 3.33994000e-03
-8.64439000 3.35444000e-03
-8.61439000 3.36903000e-03
-8.58439000 3.38372000e-03
-8.55439000 3.39850000e-03
-8.52439000 3.41338000e-03
-8.49439000 3.42835000e-03
-8.46439000 3.44343000e-03
-8.43439000 3.45861000e-03
-8.40439000 3.47390000e-03
-8.37439000 3.48930000e-03
-8.34439000 3.50480000e-03
-8.31439000 3.52042000e-03
-8.28439000 3.53616000e-03
-8.25439000 3.55201000e-03
-8.22439000 3.56798000e-03
-8.19439000 3.58408000e-03
-8.16439000 3.60030000e-03
-8.13439000 3.61665000e-03
-8.10439000 3.63313000e-03
-8.04699000 3.66506000e-03
-8.01699000 3.68195000e-03
-7.98699000 3.69899000e-03
-7.95699000 3.71618000e-03
-7.92699000 3.73354000e-03
-7.89699000 3.75106000e-03
-7.86699000 3.76875000e-03
-7.83699000 3.78663000e-03
-7.80699000 3.80470000e-03
-7.77699000 3.82297000e-03
-7.74699000 3.84145000e-03
-7.71699000 3.86017000e-03
-7.68699000 3.87915000e-03
-7.65699000 3.89840000e-03
-7.62699000 3.91795000e-03
-7.59699000 3.93786000e-03
-7.56699000 3.95816000e-03
-7.53699000 3.97893000e-03
-7.50699000 4.00025000e-03
-7.47699000 4.02225000e-03
-7.44699000 4.04512000e-03
-7.41699000 4.06910000e-03
-7.38699000 4.09460000e-03
-7.35699000 4.12222000e-03
-7.32699000 4.15295000e-03
-7.29699000 4.18852000e-03
-7.26699000 4.23204000e-03
-7.23699000 4.28959000e-03
-7.20699000 4.37402000e-03
-7.17699000 4.51436000e-03
-7.14699000 4.77358000e-03
-7.11699000 5.19662000e-03
-7.08699000 5.35727000e-03
-7.05699000 4.99400000e-03
-7.02699000 4.70497000e-03
-6.99699000 4.56921000e-03
-6.93958000 4.48958000e-03
-6.90958000 4.48453000e-03
-6.87958000 4.49008000e-03
-6.84958000 4.50191000e-03
-6.81958000 4.51773000e-03
-6.78958000 4.53627000e-03
-6.75958000 4.55677000e-03
-6.72958000 4.57877000e-03
-6.69958000 4.60198000e-03
-6.66958000 4.62621000e-03
-6.63958000 4.65136000e-03
-6.60958000 4.67737000e-03
-6.57958000 4.70423000e-03
-6.54958000 4.73198000e-03
-6.51958000 4.76073000e-03
-6.48958000 4.79068000e-03
-6.45958000 4.82229000e-03
-6.42958000 4.85652000e-03
-6.39958000 4.89548000e-03
-6.36958000 4.94211000e-03
-6.33958000 4.98805000e-03
-6.30958000 5.01857000e-03
-6.27958000 5.04735000e-03
-6.24958000 5.07091000e-03
-6.21958000 5.09830000e-03
-6.18958000 5.13259000e-03
-6.15958000 5.17194000e-03
-6.12958000 5.21560000e-03
-6.09958000 5.26390000e-03
-6.06958000 5.31806000e-03
-6.03958000 5.38046000e-03
-6.00958000 5.45560000e-03
-5.97958000 5.55248000e-03
-5.94958000 5.69055000e-03
-5.91958000 5.91181000e-03
-5.88958000 6.26215000e-03
-5.83217000 6.42267000e-03
-5.80217000 6.37505000e-03
-5.77217000 6.54500000e-03
-5.74217000 6.99148000e-03
-5.71217000 7.89412000e-03
-5.68217000 9.17878000e-03
-5.65217000 9.55996000e-03
-5.62217000 8.74432000e-03
-5.59217000 8.06692000e-03
-5.56217000 7.88618000e-03
-5.53217000 7.65686000e-03
-5.50217000 7.56283000e-03
-5.47217000 7.81494000e-03
-5.44217000 8.51683000e-03
-5.41217000 9.89197000e-03
-5.38217000 1.18418000e-02
-5.35217000 1.29215000e-02
-5.32217000 1.19375000e-02
-5.29217000 1.13456000e-02
-5.26217000 1.06904000e-02
-5.23217000 1.00568000e-02
-5.20217000 1.02043000e-02
-5.17217000 1.12592000e-02
-5.14217000 1.36981000e-02
-5.11217000 1.87221000e-02
-5.08217000 2.59923000e-02
-5.05217000 2.58098000e-02
-5.02217000 1.92430000e-02
-4.99217000 1.52722000e-02
-4.96217000 1.38675000e-02
-4.93217000 1.44671000e-02
-4.90217000 1.74617000e-02
-4.87217000 2.30193000e-02
-4.84217000 2.46522000e-02
-4.81217000 1.93744000e-02
-4.78217000 1.58652000e-02
-4.72476000 1.33837000e-02
-4.69476000 1.25121000e-02
-4.66476000 1.26945000e-02
-4.63476000 1.40042000e-02
-4.60476000 1.69857000e-02
-4.57476000 2.32645000e-02
-4.54476000 3.45414000e-02
-4.51476000 4.09039000e-02
-4.48476000 3.25519000e-02
-4.45476000 2.52569000e-02
-4.42476000 1.93893000e-02
-4.39476000 1.49591000e-02
-4.36476000 1.25492000e-02
-4.33476000 1.12833000e-02
-4.30476000 1.06169000e-02
-4.27476000 1.03690000e-02
-4.24476000 1.03933000e-02
-4.21476000 1.04612000e-02
-4.18476000 1.08652000e-02
-4.15476000 1.15631000e-02
-4.12476000 1.12389000e-02
-4.09476000 1.04423000e-02
-4.06476000 1.01153000e-02
-4.03476000 1.00995000e-02
-4.00476000 1.00932000e-02
-3.97476000 1.00861000e-02
-3.94476000 1.03197000e-02
-3.91476000 1.05858000e-02
-3.88476000 1.07339000e-02
-3.85476000 1.06520000e-02
-3.82476000 1.04573000e-02
-3.79476000 1.04791000e-02
-3.76476000 1.07227000e-02
-3.73476000 1.12090000e-02
-3.70476000 1.20640000e-02
-3.67476000 1.34922000e-02
-3.61736000 1.98390000e-02
-3.58736000 2.38955000e-02
-3.55736000 2.09766000e-02
-3.52736000 1.66819000e-02
-3.49736000 1.45413000e-02
-3.46736000 1.37967000e-02
-3.43736000 1.37847000e-02
-3.40736000 1.41042000e-02
-3.37736000 1.50385000e-02
-3.34736000 1.70756000e-02
-3.31736000 2.01705000e-02
-3.28736000 2.32299000e-02
-3.25736000 2.31153000e-02
-3.22736000 2.14539000e-02
-3.19736000 2.17933000e-02
-3.16736000 2.35395000e-02
-3.13736000 2.80269000e-02
-3.10736000 3.66752000e-02
-3.07736000 4.05343000e-02
-3.04736000 3.23052000e-02
-3.01736000 2.45992000e-02
-2.98736000 2.06424000e-02
-2.95736000 1.86238000e-02
-2.92736000 1.78724000e-02
-2.89736000 1.80597000e-02
-2.86736000 1.91116000e-02
-2.83736000 2.12557000e-02
-2.80736000 2.57030000e-02
-2.77736000 3.40708000e-02
-2.74736000 4.13942000e-02
-2.71736000 3.76778000e-02
-2.68736000 3.10302000e-02
-2.65736000 2.59249000e-02
-2.62736000 2.30098000e-02
-2.59736000 2.22104000e-02
-2.56736000 2.30882000e-02
-2.50995000 2.50637000e-02
-2.47995000 2.57388000e-02
-2.44995000 2.74984000e-02
-2.41995000 3.16946000e-02
-2.38995000 3.88775000e-02
-2.35995000 4.94568000e-02
-2.32995000 7.00571000e-02
-2.29995000 8.95200000e-02
-2.26995000 7.28356000e-02
-2.23995000 4.92599000e-02
-2.20995000 3.64925000e-02
-2.17995000 3.03058000e-02
-2.14995000 2.73194000e-02
-2.11995000 2.61932000e-02
-2.08995000 2.63731000e-02
-2.05995000 2.69608000e-02
-2.02995000 2.66745000e-02
-1.99995000 2.52786000e-02
-1.96995000 2.44033000e-02
-1.93995000 2.41690000e-02
-1.90995000 2.43220000e-02
-1.87995000 2.47130000e-02
-1.84995000 2.51749000e-02
-1.81995000 2.57222000e-02
-1.78995000 2.64833000e-02
-1.75995000 2.75768000e-02
-1.72995000 2.91467000e-02
-1.69995000 3.10226000e-02
-1.66995000 3.21703000e-02
-1.63995000 3.22596000e-02
-1.60995000 3.28334000e-02
-1.57995000 3.42469000e-02
-1.54995000 3.63792000e-02
-1.51995000 3.83278000e-02
-1.48995000 3.96895000e-02
-1.45995000 4.16651000e-02
-1.40254000 4.93237000e-02
-1.37254000 5.28185000e-02
-1.34254000 5.64108000e-02
-1.31254000 6.35693000e-02
-1.28254000 7.60373000e-02
-1.25254000 9.42553000e-02
-1.22254000 1.25686000e-01
-1.19254000 1.82975000e-01
-1.16254000 2.25179000e-01
-1.13254000 1.87271000e-01
-1.10254000 1.36342000e-01
-1.07254000 1.09174000e-01
-1.04254000 9.70277000e-02
-1.01254000 9.34399000e-02
-0.98254400 9.54228000e-02
-0.95254400 1.02722000e-01
-0.92254400 1.11846000e-01
-0.89254400 1.16288000e-01
-0.86254400 1.23285000e-01
-0.83254400 1.35146000e-01
-0.80254400 1.54733000e-01
-0.77254400 1.87158000e-01
-0.74254400 2.25704000e-01
-0.71254400 2.53602000e-01
-0.68254400 2.89328000e-01
-0.65254400 3.57709000e-01
-0.62254400 4.88774000e-01
-0.59254400 7.27542000e-01
-0.56254400 1.13430000e+00
-0.53254400 1.39751000e+00
-0.50254400 1.17426000e+00
-0.47254400 1.02140000e+00
-0.44254400 1.02256000e+00
-0.41254400 1.17810000e+00
-0.38254400 1.66235000e+00
-0.35254400 2.44996000e+00
-0.29513700 2.11456000e+00
-0.26513700 1.40094000e+00
-0.23513700 1.02572000e+00
-0.20513700 9.03264000e-01
-0.17513700 9.70961000e-01
-0.14513700 1.26593000e+00
-0.11513700 1.88360000e+00
-0.08513690 2.40810000e+00
-0.05513690 2.08319000e+00
-0.02513690 1.55342000e+00
0.00486311 1.30483000e+00
0.03486310 1.35198000e+00
0.06486310 1.61315000e+00
0.09486310 1.87065000e+00
0.12486300 2.09572000e+00
0.15486300 2.63247000e+00
0.18486300 3.71313000e+00
0.21486300 5.32048000e+00
0.24486300 8.41072000e+00
0.27486300 1.30880000e+01
0.30486300 1.29925000e+01
0.33486300 8.04068000e+00
0.36486300 4.64104000e+00
0.39486300 2.89932000e+00
0.42486300 1.99782000e+00
0.45486300 1.46334000e+00
0.48486300 1.07499000e+00
0.51486300 8.16696000e-01
0.54486300 6.45125000e-01
0.57486300 5.22118000e-01
0.60486300 4.31735000e-01
0.63486300 3.65740000e-01
0.66486300 3.15014000e-01
0.69486300 2.74744000e-01
0.72486300 2.42421000e-01
0.75486300 2.16671000e-01
