# E(MeV)  S_GAMTGAMT(K=1) for Ac295_DDPCX
-18.40420000 -1.56857000e-03
-18.37420000 5.95813000e-05
-18.34420000 1.20093000e-03
-18.31420000 1.74949000e-03
-18.28420000 2.02299000e-03
-18.25420000 2.21909000e-03
-18.22420000 2.36726000e-03
-18.19420000 2.46648000e-03
-18.16420000 2.53801000e-03
-18.13420000 2.59782000e-03
-18.10420000 2.65894000e-03
-18.07420000 2.72877000e-03
-18.04420000 2.76830000e-03
-18.01420000 2.76262000e-03
-17.98420000 2.77197000e-03
-17.95420000 2.83225000e-03
-17.92420000 2.95042000e-03
-17.89420000 2.94252000e-03
-17.86420000 2.87023000e-03
-17.83420000 2.83298000e-03
-17.80420000 2.82060000e-03
-17.77420000 2.81971000e-03
-17.74420000 2.82422000e-03
-17.71420000 2.83147000e-03
-17.68420000 2.84022000e-03
-17.65420000 2.84987000e-03
-17.62420000 2.86008000e-03
-17.59420000 2.87070000e-03
-17.56420000 2.88164000e-03
-17.53420000 2.89289000e-03
-17.50420000 2.90454000e-03
-17.47420000 2.91680000e-03
-17.44420000 2.93020000e-03
-17.41420000 2.94550000e-03
-17.38420000 2.96015000e-03
-17.35420000 2.96876000e-03
-17.32420000 2.97686000e-03
-17.29420000 2.98688000e-03
-17.26420000 2.99805000e-03
-17.23420000 3.00986000e-03
-17.20420000 3.02208000e-03
-17.17420000 3.03463000e-03
-17.14420000 3.04750000e-03
-17.11420000 3.06073000e-03
-17.08420000 3.07441000e-03
-17.05420000 3.08845000e-03
-17.02420000 3.10211000e-03
-16.99420000 3.11578000e-03
-16.96420000 3.12999000e-03
-16.93420000 3.14473000e-03
-16.90420000 3.15995000e-03
-16.87420000 3.17557000e-03
-16.84420000 3.19160000e-03
-16.81420000 3.20817000e-03
-16.78420000 3.22534000e-03
-16.75420000 3.24317000e-03
-16.72420000 3.26174000e-03
-16.69420000 3.28116000e-03
-16.66420000 3.30160000e-03
-16.63420000 3.32332000e-03
-16.60420000 3.34681000e-03
-16.57420000 3.37305000e-03
-16.54420000 3.40352000e-03
-16.51420000 3.43520000e-03
-16.48260000 3.45967000e-03
-16.45260000 3.48323000e-03
-16.42260000 3.51223000e-03
-16.39260000 3.54588000e-03
-16.36260000 3.58389000e-03
-16.33260000 3.62662000e-03
-16.30260000 3.67495000e-03
-16.27260000 3.73022000e-03
-16.24260000 3.79437000e-03
-16.21260000 3.87037000e-03
-16.18260000 3.96280000e-03
-16.15260000 4.07943000e-03
-16.12260000 4.23288000e-03
-16.09260000 4.43025000e-03
-16.06260000 4.65480000e-03
-16.03260000 4.96147000e-03
-16.00260000 5.44779000e-03
-15.97260000 6.25783000e-03
-15.94260000 7.70380000e-03
-15.91260000 1.03345000e-02
-15.88260000 1.43009000e-02
-15.85260000 1.92712000e-02
-15.82260000 1.97248000e-02
-15.79260000 1.39600000e-02
-15.76260000 9.86952000e-03
-15.73260000 7.89959000e-03
-15.70260000 7.00089000e-03
-15.67260000 6.65443000e-03
-15.64260000 6.66172000e-03
-15.61260000 6.98843000e-03
-15.58260000 7.71387000e-03
-15.55260000 8.88688000e-03
-15.52260000 1.02156000e-02
-15.49260000 1.15031000e-02
-15.46260000 1.41495000e-02
-15.43260000 1.96646000e-02
-15.40260000 2.91987000e-02
-15.37260000 3.90632000e-02
-15.34260000 3.53832000e-02
-15.31260000 2.85825000e-02
-15.28260000 2.90489000e-02
-15.25260000 3.78350000e-02
-15.22260000 4.89741000e-02
-15.19260000 5.08311000e-02
-15.16260000 3.57889000e-02
-15.13260000 2.24572000e-02
-15.10260000 1.55595000e-02
-15.07260000 1.22087000e-02
-15.04260000 1.07324000e-02
-15.01260000 9.94248000e-03
-14.98260000 8.93292000e-03
-14.95260000 8.20950000e-03
-14.92260000 7.83910000e-03
-14.89260000 7.94874000e-03
-14.86260000 8.27172000e-03
-14.83260000 8.00885000e-03
-14.80260000 7.48454000e-03
-14.77260000 6.99451000e-03
-14.74260000 6.81521000e-03
-14.71260000 7.10731000e-03
-14.68260000 8.03403000e-03
-14.65260000 9.92231000e-03
-14.62260000 1.17542000e-02
-14.59260000 1.06354000e-02
-14.56090000 8.53993000e-03
-14.53090000 7.58355000e-03
-14.50090000 7.42998000e-03
-14.47090000 7.92956000e-03
-14.44090000 9.13024000e-03
-14.41090000 1.02677000e-02
-14.38090000 1.02323000e-02
-14.35090000 1.02295000e-02
-14.32090000 1.12118000e-02
-14.29090000 1.39257000e-02
-14.26090000 1.84511000e-02
-14.23090000 2.45133000e-02
-14.20090000 2.44345000e-02
-14.17090000 1.89973000e-02
-14.14090000 1.65466000e-02
-14.11090000 1.77373000e-02
-14.08090000 2.06172000e-02
-14.05090000 2.54223000e-02
-14.02090000 2.78287000e-02
-13.99090000 2.17709000e-02
-13.96090000 1.64207000e-02
-13.93090000 1.37986000e-02
-13.90090000 1.33691000e-02
-13.87090000 1.37112000e-02
-13.84090000 1.34341000e-02
-13.81090000 1.35390000e-02
-13.78090000 1.50140000e-02
-13.75090000 1.71056000e-02
-13.72090000 1.62420000e-02
-13.69090000 1.47168000e-02
-13.66090000 1.39335000e-02
-13.63090000 1.39975000e-02
-13.60090000 1.63061000e-02
-13.57090000 2.23887000e-02
-13.54090000 3.32094000e-02
-13.51090000 3.85593000e-02
-13.48090000 2.84004000e-02
-13.45090000 1.87788000e-02
-13.42090000 1.38838000e-02
-13.39090000 1.17145000e-02
-13.36090000 1.11131000e-02
-13.33090000 1.14590000e-02
-13.30090000 1.18705000e-02
-13.27090000 1.15531000e-02
-13.24090000 1.18708000e-02
-13.21090000 1.39280000e-02
-13.18090000 1.72107000e-02
-13.15090000 1.78274000e-02
-13.12090000 1.71451000e-02
-13.09090000 1.73104000e-02
-13.06090000 1.76088000e-02
-13.03090000 1.82916000e-02
-13.00090000 1.75139000e-02
-12.97090000 1.74943000e-02
-12.94090000 1.94858000e-02
-12.91090000 2.36487000e-02
-12.88090000 3.20981000e-02
-12.85090000 3.80905000e-02
-12.82090000 2.94939000e-02
-12.79090000 2.00827000e-02
-12.76090000 1.51321000e-02
-12.73090000 1.29653000e-02
-12.70090000 1.24307000e-02
-12.67090000 1.25986000e-02
-12.63930000 1.29365000e-02
-12.60930000 1.16182000e-02
-12.57930000 1.01779000e-02
-12.54930000 9.69653000e-03
-12.51930000 1.00002000e-02
-12.48930000 1.06556000e-02
-12.45930000 1.20012000e-02
-12.42930000 1.37233000e-02
-12.39930000 1.41471000e-02
-12.36930000 1.54407000e-02
-12.33930000 1.72435000e-02
-12.30930000 1.65097000e-02
-12.27930000 1.55738000e-02
-12.24930000 1.39510000e-02
-12.21930000 1.22877000e-02
-12.18930000 1.11824000e-02
-12.15930000 1.00872000e-02
-12.12930000 9.62454000e-03
-12.09930000 9.56425000e-03
-12.06930000 9.37658000e-03
-12.03930000 9.55672000e-03
-12.00930000 9.81955000e-03
-11.97930000 1.05242000e-02
-11.94930000 1.20555000e-02
-11.91930000 1.33542000e-02
-11.88930000 1.31332000e-02
-11.85930000 1.29027000e-02
-11.82930000 1.42834000e-02
-11.79930000 1.77884000e-02
-11.76930000 2.49520000e-02
-11.73930000 3.28816000e-02
-11.70930000 2.96524000e-02
-11.67930000 2.10640000e-02
-11.64930000 1.56786000e-02
-11.61930000 1.31219000e-02
-11.58930000 1.19919000e-02
-11.55930000 1.12435000e-02
-11.52930000 1.07174000e-02
-11.49930000 1.09430000e-02
-11.46930000 1.22770000e-02
-11.43930000 1.39782000e-02
-11.40930000 1.40945000e-02
-11.37930000 1.42558000e-02
-11.34930000 1.52042000e-02
-11.31930000 1.46132000e-02
-11.28930000 1.25122000e-02
-11.25930000 1.12090000e-02
-11.22930000 1.04389000e-02
-11.19930000 1.03819000e-02
-11.16930000 1.10325000e-02
-11.13930000 1.17025000e-02
-11.10930000 1.15980000e-02
-11.07930000 1.15684000e-02
-11.04930000 1.19253000e-02
-11.01930000 1.27973000e-02
-10.98930000 1.45987000e-02
-10.95930000 1.69084000e-02
-10.92930000 2.08616000e-02
-10.89930000 2.69839000e-02
-10.86930000 2.92277000e-02
-10.83930000 2.32217000e-02
-10.80930000 1.72410000e-02
-10.77930000 1.43891000e-02
-10.74930000 1.31196000e-02
-10.71760000 1.20924000e-02
-10.68760000 1.17168000e-02
-10.65760000 1.17444000e-02
-10.62760000 1.18240000e-02
-10.59760000 1.23911000e-02
-10.56760000 1.37499000e-02
-10.53760000 1.65765000e-02
-10.50760000 2.11750000e-02
-10.47760000 2.75236000e-02
-10.44760000 3.35615000e-02
-10.41760000 3.09817000e-02
-10.38760000 2.71601000e-02
-10.35760000 2.70408000e-02
-10.32760000 2.59793000e-02
-10.29760000 2.37252000e-02
-10.26760000 2.17232000e-02
-10.23760000 1.81922000e-02
-10.20760000 1.48823000e-02
-10.17760000 1.31379000e-02
-10.14760000 1.25448000e-02
-10.11760000 1.28292000e-02
-10.08760000 1.36702000e-02
-10.05760000 1.47177000e-02
-10.02760000 1.61387000e-02
-9.99761000 1.67103000e-02
-9.96761000 1.68571000e-02
-9.93761000 1.86408000e-02
-9.90761000 2.35232000e-02
-9.87761000 2.95125000e-02
-9.84761000 2.73035000e-02
-9.81761000 2.26657000e-02
-9.78761000 2.10010000e-02
-9.75761000 2.00790000e-02
-9.72761000 1.82377000e-02
-9.69761000 1.69005000e-02
-9.66761000 1.67703000e-02
-9.63761000 1.82727000e-02
-9.60761000 2.14210000e-02
-9.57761000 2.33356000e-02
-9.54761000 2.30384000e-02
-9.51761000 2.17014000e-02
-9.48761000 2.12611000e-02
-9.45761000 2.07389000e-02
-9.42761000 2.13111000e-02
-9.39761000 2.32947000e-02
-9.36761000 2.48473000e-02
-9.33761000 2.70490000e-02
-9.30761000 3.28707000e-02
-9.27761000 4.37008000e-02
-9.24761000 5.77435000e-02
-9.21761000 6.03170000e-02
-9.18761000 4.99382000e-02
-9.15761000 3.86435000e-02
-9.12761000 3.43176000e-02
-9.09761000 3.52736000e-02
-9.06761000 3.95529000e-02
-9.03761000 4.10172000e-02
-9.00761000 3.82978000e-02
-8.97761000 3.51904000e-02
-8.94761000 3.26018000e-02
-8.91761000 3.21648000e-02
-8.88761000 3.18290000e-02
-8.85761000 2.90969000e-02
-8.82761000 2.79725000e-02
-8.79596000 2.83080000e-02
-8.76596000 3.08178000e-02
-8.73596000 3.75805000e-02
-8.70596000 4.06898000e-02
-8.67596000 3.41103000e-02
-8.64596000 2.85968000e-02
-8.61596000 2.57988000e-02
-8.58596000 2.52597000e-02
-8.55596000 2.72994000e-02
-8.52596000 3.23742000e-02
-8.49596000 3.92168000e-02
-8.46596000 4.46071000e-02
-8.43596000 5.35931000e-02
-8.40596000 6.94370000e-02
-8.37596000 9.51419000e-02
-8.34596000 1.32001000e-01
-8.31596000 1.37131000e-01
-8.28596000 1.02057000e-01
-8.25596000 6.92424000e-02
-8.22596000 5.34879000e-02
-8.19596000 4.96815000e-02
-8.16596000 5.17196000e-02
-8.13596000 4.90404000e-02
-8.10596000 4.26411000e-02
-8.07596000 4.01240000e-02
-8.04596000 4.29803000e-02
-8.01596000 5.01673000e-02
-7.98596000 5.72322000e-02
-7.95596000 6.15350000e-02
-7.92596000 7.50603000e-02
-7.89596000 8.24665000e-02
-7.86596000 6.63563000e-02
-7.83596000 5.30427000e-02
-7.80596000 4.55204000e-02
-7.77596000 3.97371000e-02
-7.74596000 3.71602000e-02
-7.71596000 3.62237000e-02
-7.68596000 3.53839000e-02
-7.65596000 3.59136000e-02
-7.62596000 3.61739000e-02
-7.59596000 3.60466000e-02
-7.56596000 3.66048000e-02
-7.53596000 3.62627000e-02
-7.50596000 3.33100000e-02
-7.47596000 3.16469000e-02
-7.44596000 3.22174000e-02
-7.41596000 3.48114000e-02
-7.38596000 3.84546000e-02
-7.35596000 4.27017000e-02
-7.32596000 5.15523000e-02
-7.29596000 6.78899000e-02
-7.26596000 8.70345000e-02
-7.23596000 1.01089000e-01
-7.20596000 1.20096000e-01
-7.17596000 1.51482000e-01
-7.14596000 1.51010000e-01
-7.11596000 1.17585000e-01
-7.08596000 9.73887000e-02
-7.05596000 8.29381000e-02
-7.02596000 7.58161000e-02
-6.99596000 8.50839000e-02
-6.96596000 1.06639000e-01
-6.93596000 1.06716000e-01
-6.90596000 8.42133000e-02
-6.87432000 6.62862000e-02
-6.84432000 6.11306000e-02
-6.81432000 6.31389000e-02
-6.78432000 6.39263000e-02
-6.75432000 6.85431000e-02
-6.72432000 8.52554000e-02
-6.69432000 1.11360000e-01
-6.66432000 1.12652000e-01
-6.63432000 9.51976000e-02
-6.60432000 9.48254000e-02
-6.57432000 1.05626000e-01
-6.54432000 1.06298000e-01
-6.51432000 1.15778000e-01
-6.48432000 1.46065000e-01
-6.45432000 1.82102000e-01
-6.42432000 1.95961000e-01
-6.39432000 1.65197000e-01
-6.36432000 1.20001000e-01
-6.33432000 9.89317000e-02
-6.30432000 9.22966000e-02
-6.27432000 9.08399000e-02
-6.24432000 9.95185000e-02
-6.21432000 1.25687000e-01
-6.18432000 1.61862000e-01
-6.15432000 1.71748000e-01
-6.12432000 1.40911000e-01
-6.09432000 1.09825000e-01
-6.06432000 9.11207000e-02
-6.03432000 8.56022000e-02
-6.00432000 9.42372000e-02
-5.97432000 1.03687000e-01
-5.94432000 9.44362000e-02
-5.91432000 8.56977000e-02
-5.88432000 8.35394000e-02
-5.85432000 8.46466000e-02
-5.82432000 8.79179000e-02
-5.79432000 9.97186000e-02
-5.76432000 1.23548000e-01
-5.73432000 1.29330000e-01
-5.70432000 1.07223000e-01
-5.67432000 9.21264000e-02
-5.64432000 8.56896000e-02
-5.61432000 8.66196000e-02
-5.58432000 9.45600000e-02
-5.55432000 1.10668000e-01
-5.52432000 1.40724000e-01
-5.49432000 1.97647000e-01
-5.46432000 2.82382000e-01
-5.43432000 3.09636000e-01
-5.40432000 2.44557000e-01
-5.37432000 1.88973000e-01
-5.34432000 1.66665000e-01
-5.31432000 1.68429000e-01
-5.28432000 1.83631000e-01
-5.25432000 2.15603000e-01
-5.22432000 2.49489000e-01
-5.19432000 2.51997000e-01
-5.16432000 2.57676000e-01
-5.13432000 2.89947000e-01
-5.10432000 3.28905000e-01
-5.07432000 3.74803000e-01
-5.04432000 4.42730000e-01
-5.01432000 5.00958000e-01
-4.98432000 5.81373000e-01
-4.95267000 7.62299000e-01
-4.92267000 9.16299000e-01
-4.89267000 9.58329000e-01
-4.86267000 9.37808000e-01
-4.83267000 1.05396000e+00
-4.80267000 1.37082000e+00
-4.77267000 1.77553000e+00
-4.74267000 2.31612000e+00
-4.71267000 2.44756000e+00
-4.68267000 1.94973000e+00
-4.65267000 1.40956000e+00
-4.62267000 1.12448000e+00
-4.59267000 1.03176000e+00
-4.56267000 1.18490000e+00
-4.53267000 1.57723000e+00
-4.50267000 1.75516000e+00
-4.47267000 1.56513000e+00
-4.44267000 1.66830000e+00
-4.41267000 2.10215000e+00
-4.38267000 2.32153000e+00
-4.35267000 2.16917000e+00
-4.32267000 1.83588000e+00
-4.29267000 1.73764000e+00
-4.26267000 2.00467000e+00
-4.23267000 1.98691000e+00
-4.20267000 1.40016000e+00
-4.17267000 9.58394000e-01
-4.14267000 7.49473000e-01
-4.11267000 6.71820000e-01
-4.08267000 6.79020000e-01
-4.05267000 7.86125000e-01
-4.02267000 9.94714000e-01
-3.99267000 1.12147000e+00
-3.96267000 1.22540000e+00
-3.93267000 1.57199000e+00
-3.90267000 2.31604000e+00
-3.87267000 3.41983000e+00
-3.84267000 3.85352000e+00
-3.81267000 3.79175000e+00
-3.78267000 3.44593000e+00
-3.75267000 2.73524000e+00
-3.72267000 1.97729000e+00
-3.69267000 1.40785000e+00
-3.66267000 9.81489000e-01
-3.63267000 7.31128000e-01
-3.60267000 5.78409000e-01
-3.57267000 4.85003000e-01
-3.54267000 4.36209000e-01
-3.51267000 4.08450000e-01
-3.48267000 4.01178000e-01
-3.45267000 3.97921000e-01
-3.42267000 4.06997000e-01
-3.39267000 4.12821000e-01
-3.36267000 4.29925000e-01
-3.33267000 5.00756000e-01
-3.30267000 6.06133000e-01
-3.27267000 7.20243000e-01
-3.24267000 8.72664000e-01
-3.21267000 1.08114000e+00
-3.18267000 1.46049000e+00
-3.15267000 2.28051000e+00
-3.12267000 3.60572000e+00
-3.09267000 3.83951000e+00
-3.06267000 2.62445000e+00
-3.03102000 1.71185000e+00
-3.00102000 1.23187000e+00
-2.97102000 8.99895000e-01
-2.94102000 7.17788000e-01
-2.91102000 6.39054000e-01
-2.88102000 6.42451000e-01
-2.85102000 6.64096000e-01
-2.82102000 5.81900000e-01
-2.79102000 4.67367000e-01
-2.76102000 3.92046000e-01
-2.73102000 3.23472000e-01
-2.70102000 2.71304000e-01
-2.67102000 2.46048000e-01
-2.64102000 2.38661000e-01
-2.61102000 2.39661000e-01
-2.58102000 2.51638000e-01
-2.55102000 2.81549000e-01
-2.52102000 3.33742000e-01
-2.49102000 4.03489000e-01
-2.46102000 5.10459000e-01
-2.43102000 7.09179000e-01
-2.40102000 1.06919000e+00
-2.37102000 1.72523000e+00
-2.34102000 2.67291000e+00
-2.31102000 2.87834000e+00
-2.28102000 2.03309000e+00
-2.25102000 1.30163000e+00
-2.22102000 8.87142000e-01
-2.19102000 6.56279000e-01
-2.16102000 4.98717000e-01
-2.13102000 3.93715000e-01
-2.10102000 3.44018000e-01
-2.07102000 3.27924000e-01
-2.04102000 3.07400000e-01
-2.01102000 2.80428000e-01
-1.98102000 2.74159000e-01
-1.95102000 2.75206000e-01
-1.92102000 2.75851000e-01
-1.89102000 2.81558000e-01
-1.86102000 2.57760000e-01
-1.83102000 2.22484000e-01
-1.80102000 2.05016000e-01
-1.77102000 2.03327000e-01
-1.74102000 2.09989000e-01
-1.71102000 2.28502000e-01
-1.68102000 2.72094000e-01
-1.65102000 3.49289000e-01
-1.62102000 4.67695000e-01
-1.59102000 6.83990000e-01
-1.56102000 1.03783000e+00
-1.53102000 1.14690000e+00
-1.50102000 8.68392000e-01
-1.47102000 6.71072000e-01
-1.44102000 5.66192000e-01
-1.41102000 5.51071000e-01
-1.38102000 6.15868000e-01
-1.35102000 6.56946000e-01
-1.32102000 6.03899000e-01
-1.29102000 5.39384000e-01
-1.26102000 5.26576000e-01
-1.23102000 4.94101000e-01
-1.20102000 4.21147000e-01
-1.17102000 3.61240000e-01
-1.14102000 3.53174000e-01
-1.10938000 4.08495000e-01
-1.07938000 5.28862000e-01
-1.04938000 6.05877000e-01
-1.01938000 5.56686000e-01
-0.98937700 5.63473000e-01
-0.95937700 5.84647000e-01
-0.92937700 6.26586000e-01
-0.89937700 7.27822000e-01
-0.86937700 7.88540000e-01
-0.83937700 8.08164000e-01
-0.80937700 7.72011000e-01
-0.77937700 7.30694000e-01
-0.74937700 6.87924000e-01
-0.71937700 5.59960000e-01
-0.68937700 4.59768000e-01
-0.65937700 4.49492000e-01
-0.62937700 5.17765000e-01
-0.59937700 6.08327000e-01
-0.56937700 6.72353000e-01
-0.53937700 7.26747000e-01
-0.50937700 7.67014000e-01
-0.47937700 7.84176000e-01
-0.44937700 8.34158000e-01
-0.41937700 9.41383000e-01
-0.38937700 9.25589000e-01
-0.35937700 9.03988000e-01
-0.32937700 1.00950000e+00
-0.29937700 1.17010000e+00
-0.26937700 1.39166000e+00
-0.23937700 1.62271000e+00
-0.20937700 1.65446000e+00
-0.17937700 1.61580000e+00
-0.14937700 1.70662000e+00
-0.11937700 1.68084000e+00
-0.08937690 1.48337000e+00
-0.05937690 1.15214000e+00
-0.02937690 8.86337000e-01
0.00062313 7.81418000e-01
0.03062310 7.87880000e-01
0.06062310 8.15928000e-01
0.09062310 8.04908000e-01
0.12062300 8.94372000e-01
0.15062300 1.10594000e+00
0.18062300 1.27480000e+00
0.21062300 1.50271000e+00
0.24062300 1.59961000e+00
0.27062300 1.32320000e+00
0.30062300 1.14124000e+00
0.33062300 1.12876000e+00
0.36062300 1.24877000e+00
0.39062300 1.47842000e+00
0.42062300 1.58698000e+00
0.45062300 1.59616000e+00
0.48062300 1.76751000e+00
0.51062300 2.05236000e+00
0.54062300 2.34734000e+00
0.57062300 2.80124000e+00
0.60062300 3.00552000e+00
0.63062300 2.80973000e+00
0.66062300 2.56489000e+00
0.69062300 2.21684000e+00
0.72062300 2.02760000e+00
0.75062300 2.02968000e+00
0.78062300 2.24629000e+00
