# E(MeV)  S_GAMTGAMT(Total=K0+2*K1) for Ag131_DDPCX
-15.51120000 3.77360000e-03
-15.48120000 3.78759000e-03
-15.45120000 3.80165000e-03
-15.42120000 3.81577000e-03
-15.39120000 3.82998000e-03
-15.36120000 3.84424000e-03
-15.33120000 3.85858000e-03
-15.30120000 3.87299000e-03
-15.27120000 3.88750000e-03
-15.24120000 3.90207000e-03
-15.21120000 3.91672000e-03
-15.18120000 3.93143000e-03
-15.15120000 3.94623000e-03
-15.12120000 3.96113000e-03
-15.09120000 3.97609000e-03
-15.06120000 3.99114000e-03
-15.03120000 4.00627000e-03
-15.00120000 4.02148000e-03
-14.97120000 4.03680000e-03
-14.94120000 4.05218000e-03
-14.91120000 4.06764000e-03
-14.88120000 4.08321000e-03
-14.85120000 4.09887000e-03
-14.82120000 4.11461000e-03
-14.79120000 4.13044000e-03
-14.76120000 4.14637000e-03
-14.73120000 4.16239000e-03
-14.70120000 4.17850000e-03
-14.67120000 4.19471000e-03
-14.64120000 4.21103000e-03
-14.61120000 4.22744000e-03
-14.58120000 4.24394000e-03
-14.55120000 4.26054000e-03
-14.52120000 4.27726000e-03
-14.49120000 4.29408000e-03
-14.46120000 4.31099000e-03
-14.43120000 4.32801000e-03
-14.40120000 4.34514000e-03
-14.37120000 4.36238000e-03
-14.34120000 4.37973000e-03
-14.31120000 4.39720000e-03
-14.28120000 4.41477000e-03
-14.25120000 4.43245000e-03
-14.22120000 4.45027000e-03
-14.19120000 4.46818000e-03
-14.16120000 4.48622000e-03
-14.13120000 4.50437000e-03
-14.10120000 4.52264000e-03
-14.07120000 4.54104000e-03
-14.04120000 4.55956000e-03
-14.01120000 4.57820000e-03
-13.98120000 4.59699000e-03
-13.95120000 4.61589000e-03
-13.92120000 4.63492000e-03
-13.87890000 4.66200000e-03
-13.84890000 4.68136000e-03
-13.81890000 4.70084000e-03
-13.78890000 4.72048000e-03
-13.75890000 4.74023000e-03
-13.72890000 4.76014000e-03
-13.69890000 4.78019000e-03
-13.66890000 4.80038000e-03
-13.63890000 4.82071000e-03
-13.60890000 4.84120000e-03
-13.57890000 4.86183000e-03
-13.54890000 4.88262000e-03
-13.51890000 4.90357000e-03
-13.48890000 4.92466000e-03
-13.45890000 4.94592000e-03
-13.42890000 4.96734000e-03
-13.39890000 4.98892000e-03
-13.36890000 5.01064000e-03
-13.33890000 5.03255000e-03
-13.30890000 5.05464000e-03
-13.27890000 5.07688000e-03
-13.24890000 5.09931000e-03
-13.21890000 5.12190000e-03
-13.18890000 5.14468000e-03
-13.15890000 5.16762000e-03
-13.12890000 5.19076000e-03
-13.09890000 5.21408000e-03
-13.06890000 5.23759000e-03
-13.03890000 5.26129000e-03
-13.00890000 5.28520000e-03
-12.97890000 5.30929000e-03
-12.94890000 5.33358000e-03
-12.91890000 5.35807000e-03
-12.88890000 5.38277000e-03
-12.85890000 5.40766000e-03
-12.82890000 5.43279000e-03
-12.79890000 5.45811000e-03
-12.76890000 5.48365000e-03
-12.73890000 5.50942000e-03
-12.70890000 5.53542000e-03
-12.67890000 5.56163000e-03
-12.64890000 5.58808000e-03
-12.61890000 5.61475000e-03
-12.58890000 5.64168000e-03
-12.55890000 5.66883000e-03
-12.52890000 5.69624000e-03
-12.49890000 5.72390000e-03
-12.46890000 5.75180000e-03
-12.43890000 5.77996000e-03
-12.40890000 5.80839000e-03
-12.37890000 5.83709000e-03
-12.34890000 5.86605000e-03
-12.31890000 5.89529000e-03
-12.28890000 5.92479000e-03
-12.24650000 5.96695000e-03
-12.21650000 5.99717000e-03
-12.18650000 6.02768000e-03
-12.15650000 6.05849000e-03
-12.12650000 6.08962000e-03
-12.09650000 6.12104000e-03
-12.06650000 6.15281000e-03
-12.03650000 6.18490000e-03
-12.00650000 6.21732000e-03
-11.97650000 6.25009000e-03
-11.94650000 6.28324000e-03
-11.91650000 6.31676000e-03
-11.88650000 6.35066000e-03
-11.85650000 6.38503000e-03
-11.82650000 6.41990000e-03
-11.79650000 6.45543000e-03
-11.76650000 6.49186000e-03
-11.73650000 6.52845000e-03
-11.70650000 6.56413000e-03
-11.67650000 6.60051000e-03
-11.64650000 6.63776000e-03
-11.61650000 6.67491000e-03
-11.58650000 6.71263000e-03
-11.55650000 6.75130000e-03
-11.52650000 6.79095000e-03
-11.49650000 6.83165000e-03
-11.46650000 6.87365000e-03
-11.43650000 6.91749000e-03
-11.40650000 6.96410000e-03
-11.37650000 7.01559000e-03
-11.34650000 7.07645000e-03
-11.31650000 7.15648000e-03
-11.28650000 7.26472000e-03
-11.25650000 7.35773000e-03
-11.22650000 7.36789000e-03
-11.19650000 7.34212000e-03
-11.16650000 7.34440000e-03
-11.13650000 7.36895000e-03
-11.10650000 7.40483000e-03
-11.07650000 7.44700000e-03
-11.04650000 7.49354000e-03
-11.01650000 7.54405000e-03
-10.98650000 7.59818000e-03
-10.95650000 7.65624000e-03
-10.92650000 7.72291000e-03
-10.89650000 7.80628000e-03
-10.86650000 7.92277000e-03
-10.83650000 8.08898000e-03
-10.80650000 8.23401000e-03
-10.77650000 8.26889000e-03
-10.74650000 8.21740000e-03
-10.71650000 8.20094000e-03
-10.68650000 8.24897000e-03
-10.65650000 8.36098000e-03
-10.61420000 8.56589000e-03
-10.58420000 8.54546000e-03
-10.55420000 8.50506000e-03
-10.52420000 8.52646000e-03
-10.49420000 8.58136000e-03
-10.46420000 8.61801000e-03
-10.43420000 8.65455000e-03
-10.40420000 8.71601000e-03
-10.37420000 8.79742000e-03
-10.34420000 8.85893000e-03
-10.31420000 8.89657000e-03
-10.28420000 8.94403000e-03
-10.25420000 9.00299000e-03
-10.22420000 9.06657000e-03
-10.19420000 9.13584000e-03
-10.16420000 9.21277000e-03
-10.13420000 9.29672000e-03
-10.10420000 9.37453000e-03
-10.07420000 9.44233000e-03
-10.04420000 9.51611000e-03
-10.01420000 9.59716000e-03
-9.98418000 9.67686000e-03
-9.95418000 9.75685000e-03
-9.92418000 9.84198000e-03
-9.89418000 9.93213000e-03
-9.86418000 1.00273900e-02
-9.83418000 1.01268600e-02
-9.80418000 1.02275900e-02
-9.77418000 1.03333700e-02
-9.74418000 1.04482800e-02
-9.71418000 1.05748300e-02
-9.68418000 1.07188300e-02
-9.65418000 1.08931600e-02
-9.62418000 1.11232400e-02
-9.59418000 1.14426300e-02
-9.56418000 1.18238300e-02
-9.53418000 1.23335900e-02
-9.50418000 1.31978000e-02
-9.47418000 1.36830100e-02
-9.44418000 1.30357100e-02
-9.41418000 1.24855300e-02
-9.38418000 1.22809300e-02
-9.35418000 1.22644400e-02
-9.32418000 1.23554600e-02
-9.29418000 1.25333300e-02
-9.26418000 1.27713900e-02
-9.23418000 1.29602700e-02
-9.20418000 1.30967000e-02
-9.17418000 1.33099000e-02
-9.14418000 1.36297600e-02
-9.11418000 1.40719600e-02
-9.08418000 1.47918900e-02
-9.05418000 1.60071500e-02
-9.02418000 1.77093700e-02
-8.98183000 2.13663300e-02
-8.95183000 2.21012300e-02
-8.92183000 1.92889000e-02
-8.89183000 1.72486000e-02
-8.86183000 1.63605800e-02
-8.83183000 1.60058900e-02
-8.80183000 1.57962600e-02
-8.77183000 1.57278100e-02
-8.74183000 1.57858400e-02
-8.71183000 1.59245800e-02
-8.68183000 1.61236900e-02
-8.65183000 1.63838600e-02
-8.62183000 1.67097100e-02
-8.59183000 1.70271900e-02
-8.56183000 1.72595100e-02
-8.53183000 1.75106700e-02
-8.50183000 1.78343800e-02
-8.47183000 1.82252400e-02
-8.44183000 1.86351000e-02
-8.41183000 1.90278700e-02
-8.38183000 1.94690600e-02
-8.35183000 1.99962600e-02
-8.32183000 2.06479300e-02
-8.29183000 2.13619000e-02
-8.26183000 2.18323000e-02
-8.23183000 2.22667400e-02
-8.20183000 2.29986700e-02
-8.17183000 2.41429200e-02
-8.14183000 2.59821800e-02
-8.11183000 2.91545100e-02
-8.08183000 3.32925300e-02
-8.05183000 3.34853600e-02
-8.02183000 3.07253900e-02
-7.99183000 2.92435500e-02
-7.96183000 2.89871500e-02
-7.93183000 2.93747200e-02
-7.90183000 3.01301000e-02
-7.87183000 3.11452500e-02
-7.84183000 3.23877600e-02
-7.81183000 3.38648900e-02
-7.78183000 3.56144900e-02
-7.75183000 3.77077000e-02
-7.72183000 4.02645300e-02
-7.69183000 4.34862300e-02
-7.66183000 4.77309200e-02
-7.63183000 5.37011800e-02
-7.60183000 6.28350500e-02
-7.57183000 7.81050900e-02
-7.54183000 1.05341500e-01
-7.51183000 1.45526500e-01
-7.48183000 1.57623100e-01
-7.45183000 1.41801600e-01
-7.42183000 1.47906900e-01
-7.39183000 1.73431000e-01
-7.34948000 1.49036900e-01
-7.31948000 1.25822500e-01
-7.28948000 1.16994300e-01
-7.25948000 1.16079100e-01
-7.22948000 1.22609300e-01
-7.19948000 1.36150200e-01
-7.16948000 1.57738300e-01
-7.13948000 1.90365400e-01
-7.10948000 2.43250700e-01
-7.07948000 3.25408800e-01
-7.04948000 3.93597400e-01
-7.01948000 4.30409800e-01
-6.98948000 4.78430900e-01
-6.95948000 5.69150200e-01
-6.92948000 7.18125800e-01
-6.89948000 9.42656600e-01
-6.86948000 1.39215080e+00
-6.83948000 2.32358450e+00
-6.80948000 4.10220280e+00
-6.77948000 5.69873440e+00
-6.74948000 4.47563950e+00
-6.71948000 2.85112640e+00
-6.68948000 1.85367890e+00
-6.65948000 1.16131170e+00
-6.62948000 7.65191700e-01
-6.59948000 5.47159100e-01
-6.56948000 4.24259600e-01
-6.53948000 3.51196000e-01
-6.50948000 2.86602100e-01
-6.47948000 2.31595900e-01
-6.44948000 1.93765000e-01
-6.41948000 1.67656000e-01
-6.38948000 1.48983600e-01
-6.35948000 1.35501100e-01
-6.32948000 1.26042100e-01
-6.29948000 1.19896200e-01
-6.26948000 1.16087400e-01
-6.23948000 1.12836000e-01
-6.20948000 1.10179200e-01
-6.17948000 1.08169300e-01
-6.14948000 1.07490900e-01
-6.11948000 1.11556300e-01
-6.08948000 1.21718300e-01
-6.05948000 1.25693000e-01
-6.02948000 1.14585900e-01
-5.99948000 1.06423000e-01
-5.96948000 1.04015800e-01
-5.93948000 1.05326100e-01
-5.90948000 1.09722400e-01
-5.87948000 1.17806600e-01
-5.84948000 1.28832500e-01
-5.81948000 1.39647200e-01
-5.78948000 1.56525800e-01
-5.75948000 1.73944300e-01
-5.71713000 1.81322300e-01
-5.68713000 1.76612500e-01
-5.65713000 1.76817700e-01
-5.62713000 1.85271500e-01
-5.59713000 2.00263800e-01
-5.56713000 2.21218000e-01
-5.53713000 2.48535400e-01
-5.50713000 2.83143600e-01
-5.47713000 3.28492800e-01
-5.44713000 3.89923800e-01
-5.41713000 4.75049200e-01
-5.38713000 5.95959000e-01
-5.35713000 7.76001000e-01
-5.32713000 1.06827600e+00
-5.29713000 1.58874200e+00
-5.26713000 2.58464400e+00
-5.23713000 4.34052400e+00
-5.20713000 5.55712400e+00
-5.17713000 4.45170200e+00
-5.14713000 3.49389000e+00
-5.11713000 3.64332000e+00
-5.08713000 5.06455000e+00
-5.05713000 7.73501100e+00
-5.02713000 9.02905000e+00
-4.99713000 6.45714300e+00
-4.96713000 3.85005400e+00
-4.93713000 2.47762500e+00
-4.90713000 1.76942900e+00
-4.87713000 1.40431700e+00
-4.84713000 1.25725700e+00
-4.81713000 1.26590800e+00
-4.78713000 1.48359800e+00
-4.75713000 1.86051800e+00
-4.72713000 1.76349200e+00
-4.69713000 1.44831900e+00
-4.66713000 1.42640100e+00
-4.63713000 1.70126300e+00
-4.60713000 1.98626600e+00
-4.57713000 2.36736600e+00
-4.54713000 3.11780700e+00
-4.51713000 3.98757000e+00
-4.48713000 3.90751900e+00
-4.45713000 2.66890900e+00
-4.42713000 1.65242400e+00
-4.39713000 1.09449500e+00
-4.36713000 7.58602000e-01
-4.33713000 5.50029000e-01
-4.30713000 4.25297300e-01
-4.27713000 3.50496300e-01
-4.24713000 3.06864900e-01
-4.21713000 2.81623600e-01
-4.18713000 2.58643700e-01
-4.15713000 2.26191400e-01
-4.12713000 2.02906100e-01
-4.08478000 1.76490800e-01
-4.05478000 1.59452700e-01
-4.02478000 1.47326000e-01
-3.99478000 1.43193400e-01
-3.96478000 1.52093500e-01
-3.93478000 1.76275100e-01
-3.90478000 1.87395900e-01
-3.87478000 1.54705800e-01
-3.84478000 1.25280400e-01
-3.81478000 1.08039500e-01
-3.78478000 9.65999000e-02
-3.75478000 9.02468000e-02
-3.72478000 8.82788000e-02
-3.69478000 9.02307000e-02
-3.66478000 9.03569000e-02
-3.63478000 8.48912000e-02
-3.60478000 8.17871000e-02
-3.57478000 8.34594000e-02
-3.54478000 8.97866000e-02
-3.51478000 1.01055700e-01
-3.48478000 1.22958500e-01
-3.45478000 1.38849200e-01
-3.42478000 1.31164200e-01
-3.39478000 1.09778000e-01
-3.36478000 8.74152000e-02
-3.33478000 7.42416000e-02
-3.30478000 6.75957000e-02
-3.27478000 6.48990000e-02
-3.24478000 6.53737000e-02
-3.21478000 6.79149000e-02
-3.18478000 7.11908000e-02
-3.15478000 7.77864000e-02
-3.12478000 8.56138000e-02
-3.09478000 9.21292000e-02
-3.06478000 9.19849000e-02
-3.03478000 7.99269000e-02
-3.00478000 6.91829000e-02
-2.97478000 6.49680000e-02
-2.94478000 6.46640000e-02
-2.91478000 6.82083000e-02
-2.88478000 7.58044000e-02
-2.85478000 7.79239000e-02
-2.82478000 7.81635000e-02
-2.79478000 8.60387000e-02
-2.76478000 9.01693000e-02
-2.73478000 8.48099000e-02
-2.70478000 7.65047000e-02
-2.67478000 6.81965000e-02
-2.64478000 6.43457000e-02
-2.61478000 6.30373000e-02
-2.58478000 6.36063000e-02
-2.55478000 6.55628000e-02
-2.52478000 7.07367000e-02
-2.49478000 7.86437000e-02
-2.45243000 8.45696000e-02
-2.42243000 9.42032000e-02
-2.39243000 1.06525400e-01
-2.36243000 1.02130500e-01
-2.33243000 8.77869000e-02
-2.30243000 7.52746000e-02
-2.27243000 6.70990000e-02
-2.24243000 6.27105000e-02
-2.21243000 6.10334000e-02
-2.18243000 6.07743000e-02
-2.15243000 6.26162000e-02
-2.12243000 6.76193000e-02
-2.09243000 7.38189000e-02
-2.06243000 7.23035000e-02
-2.03243000 6.58272000e-02
-2.00243000 6.24557000e-02
-1.97243000 6.05450000e-02
-1.94243000 5.94174000e-02
-1.91243000 5.94720000e-02
-1.88243000 6.06642000e-02
-1.85243000 6.31121000e-02
-1.82243000 6.66825000e-02
-1.79243000 7.01965000e-02
-1.76243000 7.20644000e-02
-1.73243000 7.12676000e-02
-1.70243000 7.25575000e-02
-1.67243000 7.61864000e-02
-1.64243000 7.67260000e-02
-1.61243000 7.48609000e-02
-1.58243000 7.55020000e-02
-1.55243000 7.90177000e-02
-1.52243000 8.55261000e-02
-1.49243000 9.51982000e-02
-1.46243000 9.74768000e-02
-1.43243000 9.20097000e-02
-1.40243000 8.97979000e-02
-1.37243000 8.91034000e-02
-1.34243000 8.90065000e-02
-1.31243000 9.02827000e-02
-1.28243000 9.29442000e-02
-1.25243000 9.70151000e-02
-1.22243000 1.02994200e-01
-1.19243000 1.09291100e-01
-1.16243000 1.11748000e-01
-1.13243000 1.13615900e-01
-1.10243000 1.17299300e-01
-1.07243000 1.23169200e-01
-1.04243000 1.31496200e-01
-1.01243000 1.43056300e-01
-0.98243000 1.59393000e-01
-0.95243000 1.84373600e-01
-0.92243000 2.26748300e-01
-0.89243000 2.92296200e-01
-0.86243000 3.41024000e-01
-0.82008000 3.12661000e-01
-0.79008000 3.04952800e-01
-0.76008000 3.29661400e-01
-0.73008000 3.75485000e-01
-0.70008000 4.52758000e-01
-0.67008000 6.02523000e-01
-0.64008000 8.98877000e-01
-0.61008000 1.37180900e+00
-0.58008000 1.55089200e+00
-0.55008000 1.18433800e+00
-0.52008000 8.70670000e-01
-0.49008000 7.48194000e-01
-0.46008000 7.53142000e-01
-0.43008000 8.59399000e-01
-0.40008000 1.08634800e+00
-0.37008000 1.28229700e+00
-0.34008000 1.32581000e+00
-0.31008000 1.47727700e+00
-0.28008000 1.92134800e+00
-0.25008000 2.45921400e+00
-0.22008000 3.13759000e+00
-0.19008000 4.35517000e+00
-0.16008000 5.28657000e+00
-0.13008000 5.88723000e+00
-0.10008000 4.91937100e+00
-0.07008010 3.55051700e+00
-0.04008010 2.91767700e+00
-0.01008010 2.45646300e+00
0.01991990 2.26292100e+00
0.04991990 2.44483900e+00
0.07991990 2.95775000e+00
0.10992000 3.73691800e+00
0.13992000 5.18088800e+00
0.16992000 7.20472000e+00
0.19992000 7.95744000e+00
0.22992000 7.98537000e+00
0.25992000 8.09397000e+00
0.28992000 9.66454000e+00
0.31992000 1.15085900e+01
0.34992000 1.08696300e+01
0.37992000 8.14246000e+00
0.40992000 5.60468000e+00
0.43992000 3.96491000e+00
0.46992000 2.91903300e+00
0.49992000 2.21175100e+00
0.52992000 1.81691000e+00
0.55992000 1.61493400e+00
0.58992000 1.63489900e+00
0.61992000 1.60935600e+00
0.64992000 1.24777100e+00
0.67992000 9.17359000e-01
0.70992000 7.19491000e-01
0.73992000 5.96589000e-01
0.76992000 5.20913000e-01
