# E(MeV)  S_GAMTGAMT(K=0) for Ag131_DDPCX
-15.51120000 1.22634000e-03
-15.48120000 1.23073000e-03
-15.45120000 1.23513000e-03
-15.42120000 1.23955000e-03
-15.39120000 1.24400000e-03
-15.36120000 1.24846000e-03
-15.33120000 1.25294000e-03
-15.30120000 1.25745000e-03
-15.27120000 1.26198000e-03
-15.24120000 1.26653000e-03
-15.21120000 1.27110000e-03
-15.18120000 1.27569000e-03
-15.15120000 1.28031000e-03
-15.12120000 1.28495000e-03
-15.09120000 1.28961000e-03
-15.06120000 1.29430000e-03
-15.03120000 1.29901000e-03
-15.00120000 1.30374000e-03
-14.97120000 1.30850000e-03
-14.94120000 1.31328000e-03
-14.91120000 1.31808000e-03
-14.88120000 1.32291000e-03
-14.85120000 1.32777000e-03
-14.82120000 1.33265000e-03
-14.79120000 1.33756000e-03
-14.76120000 1.34249000e-03
-14.73120000 1.34745000e-03
-14.70120000 1.35244000e-03
-14.67120000 1.35745000e-03
-14.64120000 1.36249000e-03
-14.61120000 1.36756000e-03
-14.58120000 1.37266000e-03
-14.55120000 1.37778000e-03
-14.52120000 1.38294000e-03
-14.49120000 1.38812000e-03
-14.46120000 1.39333000e-03
-14.43120000 1.39857000e-03
-14.40120000 1.40384000e-03
-14.37120000 1.40914000e-03
-14.34120000 1.41447000e-03
-14.31120000 1.41984000e-03
-14.28120000 1.42523000e-03
-14.25120000 1.43065000e-03
-14.22120000 1.43611000e-03
-14.19120000 1.44160000e-03
-14.16120000 1.44712000e-03
-14.13120000 1.45267000e-03
-14.10120000 1.45826000e-03
-14.07120000 1.46388000e-03
-14.04120000 1.46954000e-03
-14.01120000 1.47522000e-03
-13.98120000 1.48095000e-03
-13.95120000 1.48671000e-03
-13.92120000 1.49250000e-03
-13.87890000 1.50074000e-03
-13.84890000 1.50662000e-03
-13.81890000 1.51254000e-03
-13.78890000 1.51850000e-03
-13.75890000 1.52449000e-03
-13.72890000 1.53052000e-03
-13.69890000 1.53659000e-03
-13.66890000 1.54270000e-03
-13.63890000 1.54885000e-03
-13.60890000 1.55504000e-03
-13.57890000 1.56127000e-03
-13.54890000 1.56754000e-03
-13.51890000 1.57385000e-03
-13.48890000 1.58020000e-03
-13.45890000 1.58660000e-03
-13.42890000 1.59304000e-03
-13.39890000 1.59952000e-03
-13.36890000 1.60604000e-03
-13.33890000 1.61261000e-03
-13.30890000 1.61922000e-03
-13.27890000 1.62588000e-03
-13.24890000 1.63259000e-03
-13.21890000 1.63934000e-03
-13.18890000 1.64614000e-03
-13.15890000 1.65298000e-03
-13.12890000 1.65988000e-03
-13.09890000 1.66682000e-03
-13.06890000 1.67381000e-03
-13.03890000 1.68085000e-03
-13.00890000 1.68794000e-03
-12.97890000 1.69509000e-03
-12.94890000 1.70228000e-03
-12.91890000 1.70953000e-03
-12.88890000 1.71683000e-03
-12.85890000 1.72418000e-03
-12.82890000 1.73159000e-03
-12.79890000 1.73905000e-03
-12.76890000 1.74657000e-03
-12.73890000 1.75414000e-03
-12.70890000 1.76178000e-03
-12.67890000 1.76947000e-03
-12.64890000 1.77722000e-03
-12.61890000 1.78503000e-03
-12.58890000 1.79290000e-03
-12.55890000 1.80083000e-03
-12.52890000 1.80882000e-03
-12.49890000 1.81688000e-03
-12.46890000 1.82500000e-03
-12.43890000 1.83318000e-03
-12.40890000 1.84143000e-03
-12.37890000 1.84975000e-03
-12.34890000 1.85813000e-03
-12.31890000 1.86659000e-03
-12.28890000 1.87511000e-03
-12.24650000 1.88727000e-03
-12.21650000 1.89597000e-03
-12.18650000 1.90474000e-03
-12.15650000 1.91359000e-03
-12.12650000 1.92252000e-03
-12.09650000 1.93152000e-03
-12.06650000 1.94061000e-03
-12.03650000 1.94978000e-03
-12.00650000 1.95904000e-03
-11.97650000 1.96839000e-03
-11.94650000 1.97784000e-03
-11.91650000 1.98740000e-03
-11.88650000 1.99708000e-03
-11.85650000 2.00691000e-03
-11.82650000 2.01696000e-03
-11.79650000 2.02737000e-03
-11.76650000 2.03832000e-03
-11.73650000 2.04903000e-03
-11.70650000 2.05843000e-03
-11.67650000 2.06795000e-03
-11.64650000 2.07802000e-03
-11.61650000 2.08847000e-03
-11.58650000 2.09921000e-03
-11.55650000 2.11022000e-03
-11.52650000 2.12153000e-03
-11.49650000 2.13321000e-03
-11.46650000 2.14539000e-03
-11.43650000 2.15829000e-03
-11.40650000 2.17232000e-03
-11.37650000 2.18833000e-03
-11.34650000 2.20807000e-03
-11.31650000 2.23558000e-03
-11.28650000 2.27908000e-03
-11.25650000 2.33821000e-03
-11.22650000 2.34995000e-03
-11.19650000 2.31494000e-03
-11.16650000 2.29584000e-03
-11.13650000 2.29279000e-03
-11.10650000 2.29769000e-03
-11.07650000 2.30666000e-03
-11.04650000 2.31812000e-03
-11.01650000 2.33159000e-03
-10.98650000 2.34724000e-03
-10.95650000 2.36600000e-03
-10.92650000 2.39017000e-03
-10.89650000 2.42520000e-03
-10.86650000 2.48283000e-03
-10.83650000 2.56898000e-03
-10.80650000 2.59975000e-03
-10.77650000 2.54225000e-03
-10.74650000 2.50238000e-03
-10.71650000 2.48940000e-03
-10.68650000 2.48991000e-03
-10.65650000 2.49700000e-03
-10.61420000 2.51299000e-03
-10.58420000 2.52736000e-03
-10.55420000 2.54462000e-03
-10.52420000 2.56588000e-03
-10.49420000 2.58778000e-03
-10.46420000 2.60259000e-03
-10.43420000 2.62079000e-03
-10.40420000 2.65097000e-03
-10.37420000 2.69156000e-03
-10.34420000 2.70641000e-03
-10.31420000 2.69635000e-03
-10.28420000 2.69579000e-03
-10.25420000 2.70389000e-03
-10.22420000 2.71609000e-03
-10.19420000 2.73084000e-03
-10.16420000 2.74719000e-03
-10.13420000 2.76458000e-03
-10.10420000 2.78263000e-03
-10.07420000 2.80131000e-03
-10.04420000 2.82071000e-03
-10.01420000 2.84082000e-03
-9.98418000 2.86172000e-03
-9.95418000 2.88351000e-03
-9.92418000 2.90642000e-03
-9.89418000 2.93085000e-03
-9.86418000 2.95741000e-03
-9.83418000 2.98546000e-03
-9.80418000 3.01295000e-03
-9.77418000 3.04297000e-03
-9.74418000 3.07800000e-03
-9.71418000 3.11969000e-03
-9.68418000 3.17119000e-03
-9.65418000 3.23850000e-03
-9.62418000 3.33348000e-03
-9.59418000 3.48105000e-03
-9.56418000 3.73729000e-03
-9.53418000 4.22577000e-03
-9.50418000 5.06518000e-03
-9.47418000 5.48803000e-03
-9.44418000 4.75413000e-03
-9.41418000 4.10195000e-03
-9.38418000 3.78235000e-03
-9.35418000 3.63598000e-03
-9.32418000 3.57548000e-03
-9.29418000 3.56863000e-03
-9.26418000 3.60685000e-03
-9.23418000 3.64637000e-03
-9.20418000 3.61446000e-03
-9.17418000 3.58164000e-03
-9.14418000 3.57566000e-03
-9.11418000 3.58562000e-03
-9.08418000 3.60427000e-03
-9.05418000 3.62853000e-03
-9.02418000 3.65733000e-03
-8.98183000 3.70651000e-03
-8.95183000 3.75051000e-03
-8.92183000 3.80908000e-03
-8.89183000 3.89492000e-03
-8.86183000 4.01488000e-03
-8.83183000 4.09725000e-03
-8.80183000 4.05130000e-03
-8.77183000 4.00893000e-03
-8.74183000 4.00716000e-03
-8.71183000 4.02924000e-03
-8.68183000 4.06667000e-03
-8.65183000 4.12000000e-03
-8.62183000 4.19437000e-03
-8.59183000 4.26461000e-03
-8.56183000 4.28365000e-03
-8.53183000 4.30681000e-03
-8.50183000 4.35870000e-03
-8.47183000 4.42014000e-03
-8.44183000 4.46534000e-03
-8.41183000 4.49871000e-03
-8.38183000 4.53786000e-03
-8.35183000 4.60218000e-03
-8.32183000 4.69471000e-03
-8.29183000 4.77412000e-03
-8.26183000 4.80734000e-03
-8.23183000 4.85550000e-03
-8.20183000 4.93903000e-03
-8.17183000 5.06530000e-03
-8.14183000 5.26338000e-03
-8.11183000 5.60631000e-03
-8.08183000 6.17973000e-03
-8.05183000 6.55996000e-03
-8.02183000 6.17579000e-03
-7.99183000 5.79835000e-03
-7.96183000 5.64315000e-03
-7.93183000 5.60932000e-03
-7.90183000 5.63570000e-03
-7.87183000 5.69625000e-03
-7.84183000 5.78036000e-03
-7.81183000 5.88449000e-03
-7.78183000 6.00909000e-03
-7.75183000 6.15790000e-03
-7.72183000 6.33853000e-03
-7.69183000 6.56463000e-03
-7.66183000 6.86072000e-03
-7.63183000 7.27298000e-03
-7.60183000 7.89465000e-03
-7.57183000 8.92909000e-03
-7.54183000 1.08373000e-02
-7.51183000 1.44233000e-02
-7.48183000 1.84487000e-02
-7.45183000 1.67718000e-02
-7.42183000 1.31561000e-02
-7.39183000 1.15556000e-02
-7.34948000 1.21697000e-02
-7.31948000 1.40895000e-02
-7.28948000 1.41643000e-02
-7.25948000 1.22567000e-02
-7.22948000 1.13475000e-02
-7.19948000 1.16868000e-02
-7.16948000 1.30059000e-02
-7.13948000 1.39670000e-02
-7.10948000 1.49147000e-02
-7.07948000 1.65548000e-02
-7.04948000 1.52734000e-02
-7.01948000 1.30258000e-02
-6.98948000 1.20949000e-02
-6.95948000 1.22882000e-02
-6.92948000 1.31238000e-02
-6.89948000 1.29686000e-02
-6.86948000 1.21668000e-02
-6.83948000 1.19245000e-02
-6.80948000 1.21028000e-02
-6.77948000 1.24944000e-02
-6.74948000 1.30195000e-02
-6.71948000 1.35864000e-02
-6.68948000 1.33029000e-02
-6.65948000 1.28937000e-02
-6.62948000 1.28357000e-02
-6.59948000 1.30011000e-02
-6.56948000 1.32916000e-02
-6.53948000 1.36660000e-02
-6.50948000 1.41101000e-02
-6.47948000 1.46239000e-02
-6.44948000 1.52184000e-02
-6.41948000 1.59194000e-02
-6.38948000 1.67794000e-02
-6.35948000 1.79107000e-02
-6.32948000 1.95573000e-02
-6.29948000 2.20956000e-02
-6.26948000 2.50124000e-02
-6.23948000 2.65694000e-02
-6.20948000 2.69134000e-02
-6.17948000 2.69631000e-02
-6.14948000 2.67979000e-02
-6.11948000 2.68339000e-02
-6.08948000 2.70157000e-02
-6.05948000 2.77630000e-02
-6.02948000 2.90511000e-02
-5.99948000 3.07600000e-02
-5.96948000 3.28724000e-02
-5.93948000 3.54579000e-02
-5.90948000 3.86888000e-02
-5.87948000 4.29266000e-02
-5.84948000 4.89573000e-02
-5.81948000 5.84402000e-02
-5.78948000 7.26828000e-02
-5.75948000 8.19907000e-02
-5.71713000 7.78361000e-02
-5.68713000 7.73791000e-02
-5.65713000 8.14695000e-02
-5.62713000 8.90711000e-02
-5.59713000 9.98372000e-02
-5.56713000 1.14055000e-01
-5.53713000 1.32595000e-01
-5.50713000 1.56972000e-01
-5.47713000 1.89594000e-01
-5.44713000 2.34633000e-01
-5.41713000 2.99265000e-01
-5.38713000 3.95253000e-01
-5.35713000 5.43275000e-01
-5.32713000 7.93362000e-01
-5.29713000 1.25638000e+00
-5.26713000 2.17278000e+00
-5.23713000 3.81461000e+00
-5.20713000 4.85821000e+00
-5.17713000 3.48008000e+00
-5.14713000 2.05307000e+00
-5.11713000 1.31756000e+00
-5.08713000 1.00937000e+00
-5.05713000 9.71771000e-01
-5.02713000 1.09329000e+00
-4.99713000 9.73943000e-01
-4.96713000 7.15474000e-01
-4.93713000 5.48797000e-01
-4.90713000 4.44895000e-01
-4.87713000 4.15997000e-01
-4.84713000 4.56239000e-01
-4.81713000 5.88824000e-01
-4.78713000 8.92844000e-01
-4.75713000 1.30697000e+00
-4.72713000 1.23427000e+00
-4.69713000 9.10971000e-01
-4.66713000 8.24835000e-01
-4.63713000 9.39357000e-01
-4.60713000 9.03706000e-01
-4.57713000 7.88010000e-01
-4.54713000 7.69307000e-01
-4.51713000 5.86470000e-01
-4.48713000 3.71919000e-01
-4.45713000 2.50249000e-01
-4.42713000 1.89124000e-01
-4.39713000 1.58069000e-01
-4.36713000 1.29556000e-01
-4.33713000 1.02421000e-01
-4.30713000 8.41173000e-02
-4.27713000 7.20763000e-02
-4.24713000 6.36909000e-02
-4.21713000 5.77296000e-02
-4.18713000 5.40717000e-02
-4.15713000 5.26944000e-02
-4.12713000 5.12745000e-02
-4.08478000 4.41450000e-02
-4.05478000 3.96861000e-02
-4.02478000 3.60358000e-02
-3.99478000 3.30618000e-02
-3.96478000 3.09541000e-02
-3.93478000 2.94919000e-02
-3.90478000 2.86477000e-02
-3.87478000 2.86562000e-02
-3.84478000 2.95682000e-02
-3.81478000 2.90389000e-02
-3.78478000 2.67595000e-02
-3.75478000 2.49762000e-02
-3.72478000 2.36964000e-02
-3.69478000 2.29343000e-02
-3.66478000 2.26297000e-02
-3.63478000 2.25606000e-02
-3.60478000 2.23077000e-02
-3.57478000 2.24874000e-02
-3.54478000 2.35646000e-02
-3.51478000 2.61165000e-02
-3.48478000 3.15023000e-02
-3.45478000 4.22774000e-02
-3.42478000 5.53210000e-02
-3.39478000 5.05620000e-02
-3.36478000 3.66994000e-02
-3.33478000 2.77566000e-02
-3.30478000 2.31781000e-02
-3.27478000 2.08194000e-02
-3.24478000 1.95837000e-02
-3.21478000 1.90609000e-02
-3.18478000 1.92016000e-02
-3.15478000 1.98442000e-02
-3.12478000 2.11124000e-02
-3.09478000 2.40978000e-02
-3.06478000 2.64747000e-02
-3.03478000 2.36065000e-02
-3.00478000 2.05557000e-02
-2.97478000 1.91954000e-02
-2.94478000 1.83852000e-02
-2.91478000 1.75365000e-02
-2.88478000 1.71554000e-02
-2.85478000 1.72627000e-02
-2.82478000 1.79247000e-02
-2.79478000 1.94001000e-02
-2.76478000 2.20011000e-02
-2.73478000 2.58273000e-02
-2.70478000 2.66043000e-02
-2.67478000 2.29531000e-02
-2.64478000 2.02529000e-02
-2.61478000 1.93727000e-02
-2.58478000 1.96921000e-02
-2.55478000 2.05892000e-02
-2.52478000 2.25791000e-02
-2.49478000 2.60903000e-02
-2.45243000 2.73404000e-02
-2.42243000 2.71424000e-02
-2.39243000 2.62860000e-02
-2.36243000 2.40523000e-02
-2.33243000 2.22915000e-02
-2.30243000 2.07194000e-02
-2.27243000 1.92704000e-02
-2.24243000 1.85685000e-02
-2.21243000 1.82730000e-02
-2.18243000 1.82541000e-02
-2.15243000 1.86736000e-02
-2.12243000 1.93867000e-02
-2.09243000 1.96239000e-02
-2.06243000 1.93103000e-02
-2.03243000 1.88344000e-02
-2.00243000 1.86507000e-02
-1.97243000 1.87030000e-02
-1.94243000 1.88874000e-02
-1.91243000 1.91696000e-02
-1.88243000 1.95454000e-02
-1.85243000 2.00279000e-02
-1.82243000 2.06793000e-02
-1.79243000 2.15895000e-02
-1.76243000 2.27050000e-02
-1.73243000 2.39910000e-02
-1.70243000 2.61027000e-02
-1.67243000 2.91008000e-02
-1.64243000 2.92632000e-02
-1.61243000 2.71841000e-02
-1.58243000 2.62348000e-02
-1.55243000 2.64041000e-02
-1.52243000 2.66727000e-02
-1.49243000 2.67944000e-02
-1.46243000 2.73108000e-02
-1.43243000 2.83141000e-02
-1.40243000 2.97543000e-02
-1.37243000 3.10406000e-02
-1.34243000 3.17865000e-02
-1.31243000 3.24777000e-02
-1.28243000 3.36626000e-02
-1.25243000 3.55493000e-02
-1.22243000 3.85754000e-02
-1.19243000 4.21775000e-02
-1.16243000 4.32764000e-02
-1.13243000 4.32961000e-02
-1.10243000 4.45117000e-02
-1.07243000 4.69086000e-02
-1.04243000 5.04440000e-02
-1.01243000 5.54715000e-02
-0.98243000 6.29416000e-02
-0.95243000 7.50810000e-02
-0.92243000 9.61371000e-02
-0.89243000 1.23806000e-01
-0.86243000 1.26752000e-01
-0.82008000 1.10871000e-01
-0.79008000 1.14609000e-01
-0.76008000 1.29884000e-01
-0.73008000 1.54159000e-01
-0.70008000 1.90298000e-01
-0.67008000 2.57847000e-01
-0.64008000 3.91473000e-01
-0.61008000 6.37169000e-01
-0.58008000 8.38106000e-01
-0.55008000 6.71852000e-01
-0.52008000 4.73762000e-01
-0.49008000 4.02336000e-01
-0.46008000 4.18646000e-01
-0.43008000 5.07881000e-01
-0.40008000 6.97112000e-01
-0.37008000 8.23811000e-01
-0.34008000 7.43036000e-01
-0.31008000 6.68399000e-01
-0.28008000 7.41980000e-01
-0.25008000 1.00070000e+00
-0.22008000 1.56939000e+00
-0.19008000 2.31247000e+00
-0.16008000 2.07177000e+00
-0.13008000 1.29831000e+00
-0.10008000 8.46871000e-01
-0.07008010 6.45797000e-01
-0.04008010 5.75177000e-01
-0.01008010 5.86569000e-01
0.01991990 6.71769000e-01
0.04991990 8.52287000e-01
0.07991990 1.20189000e+00
0.10992000 1.90202000e+00
0.13992000 3.25825000e+00
0.16992000 4.83418000e+00
0.19992000 4.50240000e+00
0.22992000 3.05319000e+00
0.25992000 2.36755000e+00
0.28992000 2.42244000e+00
0.31992000 2.26405000e+00
0.34992000 1.77241000e+00
0.37992000 1.46376000e+00
0.40992000 1.09692000e+00
0.43992000 7.66450000e-01
0.46992000 5.77293000e-01
0.49992000 5.13655000e-01
0.52992000 4.91254000e-01
0.55992000 3.89536000e-01
0.58992000 2.88427000e-01
0.61992000 2.27500000e-01
0.64992000 1.90337000e-01
0.67992000 1.66253000e-01
0.70992000 1.49979000e-01
0.73992000 1.38905000e-01
0.76992000 1.31845000e-01
