# E(MeV)  S_GAMTGAMT(K=1) for Ag131_DDPCX
-15.51120000 1.27363000e-03
-15.48120000 1.27843000e-03
-15.45120000 1.28326000e-03
-15.42120000 1.28811000e-03
-15.39120000 1.29299000e-03
-15.36120000 1.29789000e-03
-15.33120000 1.30282000e-03
-15.30120000 1.30777000e-03
-15.27120000 1.31276000e-03
-15.24120000 1.31777000e-03
-15.21120000 1.32281000e-03
-15.18120000 1.32787000e-03
-15.15120000 1.33296000e-03
-15.12120000 1.33809000e-03
-15.09120000 1.34324000e-03
-15.06120000 1.34842000e-03
-15.03120000 1.35363000e-03
-15.00120000 1.35887000e-03
-14.97120000 1.36415000e-03
-14.94120000 1.36945000e-03
-14.91120000 1.37478000e-03
-14.88120000 1.38015000e-03
-14.85120000 1.38555000e-03
-14.82120000 1.39098000e-03
-14.79120000 1.39644000e-03
-14.76120000 1.40194000e-03
-14.73120000 1.40747000e-03
-14.70120000 1.41303000e-03
-14.67120000 1.41863000e-03
-14.64120000 1.42427000e-03
-14.61120000 1.42994000e-03
-14.58120000 1.43564000e-03
-14.55120000 1.44138000e-03
-14.52120000 1.44716000e-03
-14.49120000 1.45298000e-03
-14.46120000 1.45883000e-03
-14.43120000 1.46472000e-03
-14.40120000 1.47065000e-03
-14.37120000 1.47662000e-03
-14.34120000 1.48263000e-03
-14.31120000 1.48868000e-03
-14.28120000 1.49477000e-03
-14.25120000 1.50090000e-03
-14.22120000 1.50708000e-03
-14.19120000 1.51329000e-03
-14.16120000 1.51955000e-03
-14.13120000 1.52585000e-03
-14.10120000 1.53219000e-03
-14.07120000 1.53858000e-03
-14.04120000 1.54501000e-03
-14.01120000 1.55149000e-03
-13.98120000 1.55802000e-03
-13.95120000 1.56459000e-03
-13.92120000 1.57121000e-03
-13.87890000 1.58063000e-03
-13.84890000 1.58737000e-03
-13.81890000 1.59415000e-03
-13.78890000 1.60099000e-03
-13.75890000 1.60787000e-03
-13.72890000 1.61481000e-03
-13.69890000 1.62180000e-03
-13.66890000 1.62884000e-03
-13.63890000 1.63593000e-03
-13.60890000 1.64308000e-03
-13.57890000 1.65028000e-03
-13.54890000 1.65754000e-03
-13.51890000 1.66486000e-03
-13.48890000 1.67223000e-03
-13.45890000 1.67966000e-03
-13.42890000 1.68715000e-03
-13.39890000 1.69470000e-03
-13.36890000 1.70230000e-03
-13.33890000 1.70997000e-03
-13.30890000 1.71771000e-03
-13.27890000 1.72550000e-03
-13.24890000 1.73336000e-03
-13.21890000 1.74128000e-03
-13.18890000 1.74927000e-03
-13.15890000 1.75732000e-03
-13.12890000 1.76544000e-03
-13.09890000 1.77363000e-03
-13.06890000 1.78189000e-03
-13.03890000 1.79022000e-03
-13.00890000 1.79863000e-03
-12.97890000 1.80710000e-03
-12.94890000 1.81565000e-03
-12.91890000 1.82427000e-03
-12.88890000 1.83297000e-03
-12.85890000 1.84174000e-03
-12.82890000 1.85060000e-03
-12.79890000 1.85953000e-03
-12.76890000 1.86854000e-03
-12.73890000 1.87764000e-03
-12.70890000 1.88682000e-03
-12.67890000 1.89608000e-03
-12.64890000 1.90543000e-03
-12.61890000 1.91486000e-03
-12.58890000 1.92439000e-03
-12.55890000 1.93400000e-03
-12.52890000 1.94371000e-03
-12.49890000 1.95351000e-03
-12.46890000 1.96340000e-03
-12.43890000 1.97339000e-03
-12.40890000 1.98348000e-03
-12.37890000 1.99367000e-03
-12.34890000 2.00396000e-03
-12.31890000 2.01435000e-03
-12.28890000 2.02484000e-03
-12.24650000 2.03984000e-03
-12.21650000 2.05060000e-03
-12.18650000 2.06147000e-03
-12.15650000 2.07245000e-03
-12.12650000 2.08355000e-03
-12.09650000 2.09476000e-03
-12.06650000 2.10610000e-03
-12.03650000 2.11756000e-03
-12.00650000 2.12914000e-03
-11.97650000 2.14085000e-03
-11.94650000 2.15270000e-03
-11.91650000 2.16468000e-03
-11.88650000 2.17679000e-03
-11.85650000 2.18906000e-03
-11.82650000 2.20147000e-03
-11.79650000 2.21403000e-03
-11.76650000 2.22677000e-03
-11.73650000 2.23971000e-03
-11.70650000 2.25285000e-03
-11.67650000 2.26628000e-03
-11.64650000 2.27987000e-03
-11.61650000 2.29322000e-03
-11.58650000 2.30671000e-03
-11.55650000 2.32054000e-03
-11.52650000 2.33471000e-03
-11.49650000 2.34922000e-03
-11.46650000 2.36413000e-03
-11.43650000 2.37960000e-03
-11.40650000 2.39589000e-03
-11.37650000 2.41363000e-03
-11.34650000 2.43419000e-03
-11.31650000 2.46045000e-03
-11.28650000 2.49282000e-03
-11.25650000 2.50976000e-03
-11.22650000 2.50897000e-03
-11.19650000 2.51359000e-03
-11.16650000 2.52428000e-03
-11.13650000 2.53808000e-03
-11.10650000 2.55357000e-03
-11.07650000 2.57017000e-03
-11.04650000 2.58771000e-03
-11.01650000 2.60623000e-03
-10.98650000 2.62547000e-03
-10.95650000 2.64512000e-03
-10.92650000 2.66637000e-03
-10.89650000 2.69054000e-03
-10.86650000 2.71997000e-03
-10.83650000 2.76000000e-03
-10.80650000 2.81713000e-03
-10.77650000 2.86332000e-03
-10.74650000 2.85751000e-03
-10.71650000 2.85577000e-03
-10.68650000 2.87953000e-03
-10.65650000 2.93199000e-03
-10.61420000 3.02645000e-03
-10.58420000 3.00905000e-03
-10.55420000 2.98022000e-03
-10.52420000 2.98029000e-03
-10.49420000 2.99679000e-03
-10.46420000 3.00771000e-03
-10.43420000 3.01688000e-03
-10.40420000 3.03252000e-03
-10.37420000 3.05293000e-03
-10.34420000 3.07626000e-03
-10.31420000 3.10011000e-03
-10.28420000 3.12412000e-03
-10.25420000 3.14955000e-03
-10.22420000 3.17524000e-03
-10.19420000 3.20250000e-03
-10.16420000 3.23279000e-03
-10.13420000 3.26607000e-03
-10.10420000 3.29595000e-03
-10.07420000 3.32051000e-03
-10.04420000 3.34770000e-03
-10.01420000 3.37817000e-03
-9.98418000 3.40757000e-03
-9.95418000 3.43667000e-03
-9.92418000 3.46778000e-03
-9.89418000 3.50064000e-03
-9.86418000 3.53499000e-03
-9.83418000 3.57070000e-03
-9.80418000 3.60732000e-03
-9.77418000 3.64520000e-03
-9.74418000 3.68514000e-03
-9.71418000 3.72757000e-03
-9.68418000 3.77382000e-03
-9.65418000 3.82733000e-03
-9.62418000 3.89488000e-03
-9.59418000 3.98079000e-03
-9.56418000 4.04327000e-03
-9.53418000 4.05391000e-03
-9.50418000 4.06631000e-03
-9.47418000 4.09749000e-03
-9.44418000 4.14079000e-03
-9.41418000 4.19179000e-03
-9.38418000 4.24929000e-03
-9.35418000 4.31423000e-03
-9.32418000 4.38999000e-03
-9.29418000 4.48235000e-03
-9.26418000 4.58227000e-03
-9.23418000 4.65695000e-03
-9.20418000 4.74112000e-03
-9.17418000 4.86413000e-03
-9.14418000 5.02705000e-03
-9.11418000 5.24317000e-03
-9.08418000 5.59381000e-03
-9.05418000 6.18931000e-03
-9.02418000 7.02602000e-03
-8.98183000 8.82991000e-03
-8.95183000 9.17536000e-03
-8.92183000 7.73991000e-03
-8.89183000 6.67684000e-03
-8.86183000 6.17285000e-03
-8.83183000 5.95432000e-03
-8.80183000 5.87248000e-03
-8.77183000 5.85944000e-03
-8.74183000 5.88934000e-03
-8.71183000 5.94767000e-03
-8.68183000 6.02851000e-03
-8.65183000 6.13193000e-03
-8.62183000 6.25767000e-03
-8.59183000 6.38129000e-03
-8.56183000 6.48793000e-03
-8.53183000 6.60193000e-03
-8.50183000 6.73784000e-03
-8.47183000 6.90255000e-03
-8.44183000 7.08488000e-03
-8.41183000 7.26458000e-03
-8.38183000 7.46560000e-03
-8.35183000 7.69704000e-03
-8.32183000 7.97661000e-03
-8.29183000 8.29389000e-03
-8.26183000 8.51248000e-03
-8.23183000 8.70562000e-03
-8.20183000 9.02982000e-03
-8.17183000 9.53881000e-03
-8.14183000 1.03594000e-02
-8.11183000 1.17741000e-02
-8.08183000 1.35564000e-02
-8.05183000 1.34627000e-02
-8.02183000 1.22748000e-02
-7.99183000 1.17226000e-02
-7.96183000 1.16720000e-02
-7.93183000 1.18827000e-02
-7.90183000 1.22472000e-02
-7.87183000 1.27245000e-02
-7.84183000 1.33037000e-02
-7.81183000 1.39902000e-02
-7.78183000 1.48027000e-02
-7.75183000 1.57749000e-02
-7.72183000 1.69630000e-02
-7.69183000 1.84608000e-02
-7.66183000 2.04351000e-02
-7.63183000 2.32141000e-02
-7.60183000 2.74702000e-02
-7.57183000 3.45880000e-02
-7.54183000 4.72521000e-02
-7.51183000 6.55516000e-02
-7.48183000 6.95872000e-02
-7.45183000 6.25149000e-02
-7.42183000 6.73754000e-02
-7.39183000 8.09377000e-02
-7.34948000 6.84336000e-02
-7.31948000 5.58665000e-02
-7.28948000 5.14150000e-02
-7.25948000 5.19112000e-02
-7.22948000 5.56309000e-02
-7.19948000 6.22317000e-02
-7.16948000 7.23662000e-02
-7.13948000 8.81992000e-02
-7.10948000 1.14168000e-01
-7.07948000 1.54427000e-01
-7.04948000 1.89162000e-01
-7.01948000 2.08692000e-01
-6.98948000 2.33168000e-01
-6.95948000 2.78431000e-01
-6.92948000 3.52501000e-01
-6.89948000 4.64844000e-01
-6.86948000 6.89992000e-01
-6.83948000 1.15583000e+00
-6.80948000 2.04505000e+00
-6.77948000 2.84312000e+00
-6.74948000 2.23131000e+00
-6.71948000 1.41877000e+00
-6.68948000 9.20188000e-01
-6.65948000 5.74209000e-01
-6.62948000 3.76178000e-01
-6.59948000 2.67079000e-01
-6.56948000 2.05484000e-01
-6.53948000 1.68765000e-01
-6.50948000 1.36246000e-01
-6.47948000 1.08486000e-01
-6.44948000 8.92733000e-02
-6.41948000 7.58683000e-02
-6.38948000 6.61021000e-02
-6.35948000 5.87952000e-02
-6.32948000 5.32424000e-02
-6.29948000 4.89003000e-02
-6.26948000 4.55375000e-02
-6.23948000 4.31333000e-02
-6.20948000 4.16329000e-02
-6.17948000 4.06031000e-02
-6.14948000 4.03465000e-02
-6.11948000 4.23612000e-02
-6.08948000 4.73513000e-02
-6.05948000 4.89650000e-02
-6.02948000 4.27674000e-02
-5.99948000 3.78315000e-02
-5.96948000 3.55717000e-02
-5.93948000 3.49341000e-02
-5.90948000 3.55168000e-02
-5.87948000 3.74400000e-02
-5.84948000 3.99376000e-02
-5.81948000 4.06035000e-02
-5.78948000 4.19215000e-02
-5.75948000 4.59768000e-02
-5.71713000 5.17431000e-02
-5.68713000 4.96167000e-02
-5.65713000 4.76741000e-02
-5.62713000 4.81002000e-02
-5.59713000 5.02133000e-02
-5.56713000 5.35815000e-02
-5.53713000 5.79702000e-02
-5.50713000 6.30858000e-02
-5.47713000 6.94494000e-02
-5.44713000 7.76454000e-02
-5.41713000 8.78921000e-02
-5.38713000 1.00353000e-01
-5.35713000 1.16363000e-01
-5.32713000 1.37457000e-01
-5.29713000 1.66181000e-01
-5.26713000 2.05932000e-01
-5.23713000 2.62957000e-01
-5.20713000 3.49457000e-01
-5.17713000 4.85811000e-01
-5.14713000 7.20410000e-01
-5.11713000 1.16288000e+00
-5.08713000 2.02759000e+00
-5.05713000 3.38162000e+00
-5.02713000 3.96788000e+00
-4.99713000 2.74160000e+00
-4.96713000 1.56729000e+00
-4.93713000 9.64414000e-01
-4.90713000 6.62267000e-01
-4.87713000 4.94160000e-01
-4.84713000 4.00509000e-01
-4.81713000 3.38542000e-01
-4.78713000 2.95377000e-01
-4.75713000 2.76774000e-01
-4.72713000 2.64611000e-01
-4.69713000 2.68674000e-01
-4.66713000 3.00783000e-01
-4.63713000 3.80953000e-01
-4.60713000 5.41280000e-01
-4.57713000 7.89678000e-01
-4.54713000 1.17425000e+00
-4.51713000 1.70055000e+00
-4.48713000 1.76780000e+00
-4.45713000 1.20933000e+00
-4.42713000 7.31650000e-01
-4.39713000 4.68213000e-01
-4.36713000 3.14523000e-01
-4.33713000 2.23804000e-01
-4.30713000 1.70590000e-01
-4.27713000 1.39210000e-01
-4.24713000 1.21587000e-01
-4.21713000 1.11947000e-01
-4.18713000 1.02286000e-01
-4.15713000 8.67485000e-02
-4.12713000 7.58158000e-02
-4.08478000 6.61729000e-02
-4.05478000 5.98833000e-02
-4.02478000 5.56451000e-02
-3.99478000 5.50658000e-02
-3.96478000 6.05697000e-02
-3.93478000 7.33916000e-02
-3.90478000 7.93741000e-02
-3.87478000 6.30248000e-02
-3.84478000 4.78561000e-02
-3.81478000 3.95003000e-02
-3.78478000 3.49202000e-02
-3.75478000 3.26353000e-02
-3.72478000 3.22912000e-02
-3.69478000 3.36482000e-02
-3.66478000 3.38636000e-02
-3.63478000 3.11653000e-02
-3.60478000 2.97397000e-02
-3.57478000 3.04860000e-02
-3.54478000 3.31110000e-02
-3.51478000 3.74696000e-02
-3.48478000 4.57281000e-02
-3.45478000 4.82859000e-02
-3.42478000 3.79216000e-02
-3.39478000 2.96080000e-02
-3.36478000 2.53579000e-02
-3.33478000 2.32425000e-02
-3.30478000 2.22088000e-02
-3.27478000 2.20398000e-02
-3.24478000 2.28950000e-02
-3.21478000 2.44270000e-02
-3.18478000 2.59946000e-02
-3.15478000 2.89711000e-02
-3.12478000 3.22507000e-02
-3.09478000 3.40157000e-02
-3.06478000 3.27551000e-02
-3.03478000 2.81602000e-02
-3.00478000 2.43136000e-02
-2.97478000 2.28863000e-02
-2.94478000 2.31394000e-02
-2.91478000 2.53359000e-02
-2.88478000 2.93245000e-02
-2.85478000 3.03306000e-02
-2.82478000 3.01194000e-02
-2.79478000 3.33193000e-02
-2.76478000 3.40841000e-02
-2.73478000 2.94913000e-02
-2.70478000 2.49502000e-02
-2.67478000 2.26217000e-02
-2.64478000 2.20464000e-02
-2.61478000 2.18323000e-02
-2.58478000 2.19571000e-02
-2.55478000 2.24868000e-02
-2.52478000 2.40788000e-02
-2.49478000 2.62767000e-02
-2.45243000 2.86146000e-02
-2.42243000 3.35304000e-02
-2.39243000 4.01197000e-02
-2.36243000 3.90391000e-02
-2.33243000 3.27477000e-02
-2.30243000 2.72776000e-02
-2.27243000 2.39143000e-02
-2.24243000 2.20710000e-02
-2.21243000 2.13802000e-02
-2.18243000 2.12601000e-02
-2.15243000 2.19713000e-02
-2.12243000 2.41163000e-02
-2.09243000 2.70975000e-02
-2.06243000 2.64966000e-02
-2.03243000 2.34964000e-02
-2.00243000 2.19025000e-02
-1.97243000 2.09210000e-02
-1.94243000 2.02650000e-02
-1.91243000 2.01512000e-02
-1.88243000 2.05594000e-02
-1.85243000 2.15421000e-02
-1.82243000 2.30016000e-02
-1.79243000 2.43035000e-02
-1.76243000 2.46797000e-02
-1.73243000 2.36383000e-02
-1.70243000 2.32274000e-02
-1.67243000 2.35428000e-02
-1.64243000 2.37314000e-02
-1.61243000 2.38384000e-02
-1.58243000 2.46336000e-02
-1.55243000 2.63068000e-02
-1.52243000 2.94267000e-02
-1.49243000 3.42019000e-02
-1.46243000 3.50830000e-02
-1.43243000 3.18478000e-02
-1.40243000 3.00218000e-02
-1.37243000 2.90314000e-02
-1.34243000 2.86100000e-02
-1.31243000 2.89025000e-02
-1.28243000 2.96408000e-02
-1.25243000 3.07329000e-02
-1.22243000 3.22094000e-02
-1.19243000 3.35568000e-02
-1.16243000 3.42358000e-02
-1.13243000 3.51599000e-02
-1.10243000 3.63938000e-02
-1.07243000 3.81303000e-02
-1.04243000 4.05261000e-02
-1.01243000 4.37924000e-02
-0.98243000 4.82257000e-02
-0.95243000 5.46463000e-02
-0.92243000 6.53056000e-02
-0.89243000 8.42451000e-02
-0.86243000 1.07136000e-01
-0.82008000 1.00895000e-01
-0.79008000 9.51719000e-02
-0.76008000 9.98887000e-02
-0.73008000 1.10663000e-01
-0.70008000 1.31230000e-01
-0.67008000 1.72338000e-01
-0.64008000 2.53702000e-01
-0.61008000 3.67320000e-01
-0.58008000 3.56393000e-01
-0.55008000 2.56243000e-01
-0.52008000 1.98454000e-01
-0.49008000 1.72929000e-01
-0.46008000 1.67248000e-01
-0.43008000 1.75759000e-01
-0.40008000 1.94618000e-01
-0.37008000 2.29243000e-01
-0.34008000 2.91387000e-01
-0.31008000 4.04439000e-01
-0.28008000 5.89684000e-01
-0.25008000 7.29257000e-01
-0.22008000 7.84100000e-01
-0.19008000 1.02135000e+00
-0.16008000 1.60740000e+00
-0.13008000 2.29446000e+00
-0.10008000 2.03625000e+00
-0.07008010 1.45236000e+00
-0.04008010 1.17125000e+00
-0.01008010 9.34947000e-01
0.01991990 7.95576000e-01
0.04991990 7.96276000e-01
0.07991990 8.77930000e-01
0.10992000 9.17449000e-01
0.13992000 9.61319000e-01
0.16992000 1.18527000e+00
0.19992000 1.72752000e+00
0.22992000 2.46609000e+00
0.25992000 2.86321000e+00
0.28992000 3.62105000e+00
0.31992000 4.62227000e+00
0.34992000 4.54861000e+00
0.37992000 3.33935000e+00
0.40992000 2.25388000e+00
0.43992000 1.59923000e+00
0.46992000 1.17087000e+00
0.49992000 8.49048000e-01
0.52992000 6.62828000e-01
0.55992000 6.12699000e-01
0.58992000 6.73236000e-01
0.61992000 6.90928000e-01
0.64992000 5.28717000e-01
0.67992000 3.75553000e-01
0.70992000 2.84756000e-01
0.73992000 2.28842000e-01
0.76992000 1.94534000e-01
