# E(MeV)  S_GAMTGAMT(Total=K0+2*K1) for Am249_DDPCX
-2.19153000 1.20700500e-02
-2.16153000 1.13881400e-02
-2.13153000 1.09008100e-02
-2.10153000 1.03876200e-02
-2.07153000 9.57773000e-03
-2.04153000 8.01023000e-03
-2.01153000 5.12747800e-03
-1.98153000 3.14479000e-03
-1.95153000 5.77728000e-03
-1.92153000 8.62654000e-03
-1.89115000 1.01944900e-02
-1.86115000 1.10401800e-02
-1.83115000 1.15707100e-02
-1.80115000 1.19561600e-02
-1.77115000 1.22770400e-02
-1.74115000 1.25778200e-02
-1.71115000 1.28899500e-02
-1.68115000 1.32437600e-02
-1.65115000 1.36785100e-02
-1.62115000 1.42563800e-02
-1.59077000 1.51031100e-02
-1.56077000 1.64276100e-02
-1.53077000 1.87398600e-02
-1.50077000 2.31779200e-02
-1.47077000 3.16248000e-02
-1.44077000 4.02802200e-02
-1.41077000 3.47920000e-02
-1.38077000 2.54465200e-02
-1.35077000 2.02910600e-02
-1.32077000 1.77567600e-02
-1.29039000 1.64323700e-02
-1.26039000 1.57180500e-02
-1.23039000 1.53139600e-02
-1.20039000 1.50871900e-02
-1.17039000 1.49691100e-02
-1.14039000 1.49218800e-02
-1.11039000 1.49235600e-02
-1.08039000 1.49608000e-02
-1.05039000 1.50254100e-02
-1.02039000 1.51121900e-02
-0.99001200 1.52195000e-02
-0.96001200 1.53428500e-02
-0.93001200 1.54828000e-02
-0.90001200 1.56395000e-02
-0.87001200 1.58139400e-02
-0.84001200 1.60079500e-02
-0.81001200 1.62243500e-02
-0.78001200 1.64671800e-02
-0.75001200 1.67421900e-02
-0.72001200 1.70574300e-02
-0.68963200 1.74294600e-02
-0.65963200 1.78659200e-02
-0.62963200 1.83961100e-02
-0.59963200 1.90584900e-02
-0.56963200 1.99145500e-02
-0.53963200 2.10671200e-02
-0.50963200 2.26980400e-02
-0.47963200 2.51502000e-02
-0.44963200 2.91211600e-02
-0.41963200 3.61439700e-02
-0.38925100 4.99447300e-02
-0.35925100 7.61206400e-02
-0.32925100 1.03458400e-01
-0.29925100 8.68994900e-02
-0.26925100 5.77107100e-02
-0.23925100 4.17021700e-02
-0.20925100 3.41300000e-02
-0.17925100 3.07145000e-02
-0.14925100 2.97245300e-02
-0.11925100 3.06625900e-02
-0.08887110 3.37283900e-02
-0.05887110 4.00447500e-02
-0.02887110 4.61868400e-02
0.00112889 4.29413800e-02
0.03112890 3.85418000e-02
0.06112890 3.97950300e-02
0.09112890 4.79582200e-02
0.12112900 6.02972300e-02
0.15112900 5.70966000e-02
0.18112900 4.43505000e-02
0.21150900 3.72807000e-02
0.24150900 3.52146000e-02
0.27150900 3.66326000e-02
0.30150900 4.21182000e-02
0.33150900 5.22911000e-02
0.36150900 6.22100000e-02
0.39150900 6.19404000e-02
0.42150900 5.37174000e-02
0.45150900 4.78601200e-02
0.48150900 4.11280400e-02
0.51189000 3.67619600e-02
0.54189000 3.46375000e-02
0.57189000 3.40719400e-02
0.60189000 3.49771600e-02
0.63189000 3.76032000e-02
0.66189000 4.29952000e-02
0.69189000 5.19496000e-02
0.72189000 5.84401000e-02
0.75189000 6.30420000e-02
0.78189000 7.65635000e-02
