# E(MeV)  S_GAMTGAMT(K=1) for Am249_DDPCX
-2.19153000 4.14157000e-03
-2.16153000 3.78390000e-03
-2.13153000 3.52275000e-03
-2.10153000 3.24777000e-03
-2.07153000 2.82338000e-03
-2.04153000 2.01893000e-03
-2.01153000 5.55364000e-04
-1.98153000 -4.59980000e-04
-1.95153000 8.30065000e-04
-1.92153000 2.22577000e-03
-1.89115000 2.97697000e-03
-1.86115000 3.36306000e-03
-1.83115000 3.58590000e-03
-1.80115000 3.72871000e-03
-1.77115000 3.82908000e-03
-1.74115000 3.90530000e-03
-1.71115000 3.96699000e-03
-1.68115000 4.01955000e-03
-1.65115000 4.06619000e-03
-1.62115000 4.10891000e-03
-1.59077000 4.14949000e-03
-1.56077000 4.18782000e-03
-1.53077000 4.22503000e-03
-1.50077000 4.26156000e-03
-1.47077000 4.29775000e-03
-1.44077000 4.33386000e-03
-1.41077000 4.37010000e-03
-1.38077000 4.40666000e-03
-1.35077000 4.44368000e-03
-1.32077000 4.48132000e-03
-1.29039000 4.52020000e-03
-1.26039000 4.55950000e-03
-1.23039000 4.59985000e-03
-1.20039000 4.64139000e-03
-1.17039000 4.68430000e-03
-1.14039000 4.72877000e-03
-1.11039000 4.77503000e-03
-1.08039000 4.82331000e-03
-1.05039000 4.87393000e-03
-1.02039000 4.92723000e-03
-0.99001200 4.98439000e-03
-0.96001200 5.04449000e-03
-0.93001200 5.10888000e-03
-0.90001200 5.17836000e-03
-0.87001200 5.25395000e-03
-0.84001200 5.33696000e-03
-0.81001200 5.42909000e-03
-0.78001200 5.53258000e-03
-0.75001200 5.65046000e-03
-0.72001200 5.78688000e-03
-0.68963200 5.94990000e-03
-0.65963200 6.14396000e-03
-0.62963200 6.38346000e-03
-0.59963200 6.68763000e-03
-0.56963200 7.08719000e-03
-0.53963200 7.63351000e-03
-0.50963200 8.41744000e-03
-0.47963200 9.61032000e-03
-0.44963200 1.15608000e-02
-0.41963200 1.50352000e-02
-0.38925100 2.18958000e-02
-0.35925100 3.49418000e-02
-0.32925100 4.85655000e-02
-0.29925100 4.02367000e-02
-0.26925100 2.55872000e-02
-0.23925100 1.75190000e-02
-0.20925100 1.36538000e-02
-0.17925100 1.18376000e-02
-0.14925100 1.11791000e-02
-0.11925100 1.14569000e-02
-0.08887110 1.29683000e-02
-0.05887110 1.61799000e-02
-0.02887110 1.92407000e-02
0.00112889 1.75578000e-02
0.03112890 1.52649000e-02
0.06112890 1.57698000e-02
0.09112890 1.96976000e-02
0.12112900 2.56712000e-02
0.15112900 2.38141000e-02
0.18112900 1.70894000e-02
0.21150900 1.30359000e-02
0.24150900 1.11987000e-02
0.27150900 1.05307000e-02
0.30150900 1.07434000e-02
0.33150900 1.15424000e-02
0.36150900 1.12370000e-02
0.39150900 1.00546000e-02
0.42150900 9.38285000e-03
0.45150900 9.18741000e-03
0.48150900 9.29962000e-03
0.51189000 9.47193000e-03
0.54189000 9.48570000e-03
0.57189000 9.56287000e-03
0.60189000 9.85948000e-03
0.63189000 1.04071000e-02
0.66189000 1.13050000e-02
0.69189000 1.28081000e-02
0.72189000 1.55060000e-02
0.75189000 2.06603000e-02
0.78189000 2.94488000e-02
