# E(MeV)  S_GAMTGAMT(K=0) for Am249_DDPCX
-2.19153000 3.78691000e-03
-2.16153000 3.82034000e-03
-2.13153000 3.85531000e-03
-2.10153000 3.89208000e-03
-2.07153000 3.93097000e-03
-2.04153000 3.97237000e-03
-2.01153000 4.01675000e-03
-1.98153000 4.06475000e-03
-1.95153000 4.11715000e-03
-1.92153000 4.17500000e-03
-1.89115000 4.24055000e-03
-1.86115000 4.31406000e-03
-1.83115000 4.39891000e-03
-1.80115000 4.49874000e-03
-1.77115000 4.61888000e-03
-1.74115000 4.76722000e-03
-1.71115000 4.95597000e-03
-1.68115000 5.20466000e-03
-1.65115000 5.54613000e-03
-1.62115000 6.03856000e-03
-1.59077000 6.80413000e-03
-1.56077000 8.05197000e-03
-1.53077000 1.02898000e-02
-1.50077000 1.46548000e-02
-1.47077000 2.30293000e-02
-1.44077000 3.16125000e-02
-1.41077000 2.60518000e-02
-1.38077000 1.66332000e-02
-1.35077000 1.14037000e-02
-1.32077000 8.79412000e-03
-1.29039000 7.39197000e-03
-1.26039000 6.59905000e-03
-1.23039000 6.11426000e-03
-1.20039000 5.80441000e-03
-1.17039000 5.60051000e-03
-1.14039000 5.46434000e-03
-1.11039000 5.37350000e-03
-1.08039000 5.31418000e-03
-1.05039000 5.27755000e-03
-1.02039000 5.25773000e-03
-0.99001200 5.25072000e-03
-0.96001200 5.25387000e-03
-0.93001200 5.26504000e-03
-0.90001200 5.28278000e-03
-0.87001200 5.30604000e-03
-0.84001200 5.33403000e-03
-0.81001200 5.36617000e-03
-0.78001200 5.40202000e-03
-0.75001200 5.44127000e-03
-0.72001200 5.48367000e-03
-0.68963200 5.52966000e-03
-0.65963200 5.57800000e-03
-0.62963200 5.62919000e-03
-0.59963200 5.68323000e-03
-0.56963200 5.74017000e-03
-0.53963200 5.80010000e-03
-0.50963200 5.86316000e-03
-0.47963200 5.92956000e-03
-0.44963200 5.99956000e-03
-0.41963200 6.07357000e-03
-0.38925100 6.15313000e-03
-0.35925100 6.23704000e-03
-0.32925100 6.32740000e-03
-0.29925100 6.42609000e-03
-0.26925100 6.53631000e-03
-0.23925100 6.66417000e-03
-0.20925100 6.82240000e-03
-0.17925100 7.03930000e-03
-0.14925100 7.36633000e-03
-0.11925100 7.74879000e-03
-0.08887110 7.79179000e-03
-0.05887110 7.68495000e-03
-0.02887110 7.70544000e-03
0.00112889 7.82578000e-03
0.03112890 8.01200000e-03
0.06112890 8.25543000e-03
0.09112890 8.56302000e-03
0.12112900 8.95483000e-03
0.15112900 9.46840000e-03
0.18112900 1.01717000e-02
0.21150900 1.12089000e-02
0.24150900 1.28172000e-02
0.27150900 1.55712000e-02
0.30150900 2.06314000e-02
0.33150900 2.92063000e-02
0.36150900 3.97360000e-02
0.39150900 4.18312000e-02
0.42150900 3.49517000e-02
0.45150900 2.94853000e-02
0.48150900 2.25288000e-02
0.51189000 1.78181000e-02
0.54189000 1.56661000e-02
0.57189000 1.49462000e-02
0.60189000 1.52582000e-02
0.63189000 1.67890000e-02
0.66189000 2.03852000e-02
0.69189000 2.63334000e-02
0.72189000 2.74281000e-02
0.75189000 2.17214000e-02
0.78189000 1.76659000e-02
