# E(MeV)  S_NSDRNSDR(Total=K0+2*K1) for Am249_DDPCX
-2.19153000 1.00434710e-01
-2.16153000 1.13977390e-01
-2.13153000 1.27584970e-01
-2.10153000 1.41287410e-01
-2.07153000 1.55113900e-01
-2.04153000 1.69095600e-01
-2.01153000 1.83264100e-01
-1.98153000 1.97653300e-01
-1.95153000 2.12298000e-01
-1.92153000 2.27237200e-01
-1.89115000 2.42703300e-01
-1.86115000 2.58357800e-01
-1.83115000 2.74436400e-01
-1.80115000 2.90990500e-01
-1.77115000 3.08077600e-01
-1.74115000 3.25759400e-01
-1.71115000 3.44105800e-01
-1.68115000 3.63197100e-01
-1.65115000 3.83117500e-01
-1.62115000 4.03965800e-01
-1.59077000 4.26141600e-01
-1.56077000 4.49221500e-01
-1.53077000 4.73621100e-01
-1.50077000 4.99514400e-01
-1.47077000 5.27101900e-01
-1.44077000 5.56622500e-01
-1.41077000 5.88351500e-01
-1.38077000 6.22623200e-01
-1.35077000 6.59836200e-01
-1.32077000 7.00476000e-01
-1.29039000 7.45724800e-01
-1.26039000 7.95189900e-01
-1.23039000 8.50321500e-01
-1.20039000 9.12271000e-01
-1.17039000 9.82503000e-01
-1.14039000 1.06292600e+00
-1.11039000 1.15603600e+00
-1.08039000 1.26517600e+00
-1.05039000 1.39489900e+00
-1.02039000 1.55153500e+00
-0.99001200 1.74682300e+00
-0.96001200 1.98923600e+00
-0.93001200 2.30096700e+00
-0.90001200 2.71334100e+00
-0.87001200 3.27747700e+00
-0.84001200 4.08112300e+00
-0.81001200 5.28401400e+00
-0.78001200 7.19805200e+00
-0.75001200 1.04814880e+01
-0.72001200 1.66216060e+01
-0.68963200 2.90562770e+01
-0.65963200 4.97400100e+01
-0.62963200 5.67806590e+01
-0.59963200 3.72085740e+01
-0.56963200 2.11879330e+01
-0.53963200 1.30097270e+01
-0.50963200 8.83740600e+00
-0.47963200 6.54395300e+00
-0.44963200 5.19455300e+00
-0.41963200 4.36169300e+00
-0.38925100 3.82935100e+00
-0.35925100 3.49879500e+00
-0.32925100 3.30018800e+00
-0.29925100 3.19820600e+00
-0.26925100 3.17254600e+00
-0.23925100 3.21245600e+00
-0.20925100 3.31391200e+00
-0.17925100 3.47845000e+00
-0.14925100 3.71330100e+00
-0.11925100 4.03247000e+00
-0.08887110 4.46599000e+00
-0.05887110 5.04256000e+00
-0.02887110 5.83272000e+00
0.00112889 6.95184000e+00
0.03112890 8.61532000e+00
0.06112890 1.12579700e+01
0.09112890 1.58209800e+01
0.12112900 2.42379700e+01
0.15112900 3.75857000e+01
0.18112900 4.64894000e+01
0.21150900 5.34325000e+01
0.24150900 6.28638400e+01
0.27150900 5.16268800e+01
0.30150900 3.81608000e+01
0.33150900 3.54308000e+01
0.36150900 4.32350600e+01
0.39150900 6.04301700e+01
0.42150900 6.76337900e+01
0.45150900 6.38889400e+01
0.48150900 7.76536600e+01
0.51189000 1.15114900e+02
0.54189000 1.27976150e+02
0.57189000 9.14403000e+01
0.60189000 6.45919000e+01
0.63189000 4.59141000e+01
0.66189000 3.35518000e+01
0.69189000 2.73727800e+01
0.72189000 2.19002100e+01
0.75189000 1.83142700e+01
0.78189000 1.69732200e+01
