# E(MeV)  S_GAMTGAMT(Total=K0+2*K1) for Am255_DDPCX
-4.00832000 1.20156600e-02
-3.97832000 1.25541000e-02
-3.94832000 1.26452700e-02
-3.91832000 1.29430000e-02
-3.88832000 1.36745400e-02
-3.85832000 1.50234500e-02
-3.82832000 1.75140300e-02
-3.79832000 2.24078100e-02
-3.76832000 3.16943500e-02
-3.73832000 4.03996500e-02
-3.70832000 3.36367300e-02
-3.67832000 2.37615200e-02
-3.64832000 1.83866600e-02
-3.61832000 1.56984700e-02
-3.58832000 1.42483100e-02
-3.55832000 1.33755500e-02
-3.52626000 1.27183500e-02
-3.49626000 1.22118200e-02
-3.46626000 1.20191100e-02
-3.43626000 1.21200400e-02
-3.40626000 1.21988800e-02
-3.37626000 1.22356600e-02
-3.34626000 1.22580200e-02
-3.31626000 1.22759700e-02
-3.28626000 1.22876600e-02
-3.25626000 1.22875500e-02
-3.22626000 1.23102800e-02
-3.19626000 1.23976100e-02
-3.16626000 1.24882900e-02
-3.13626000 1.25665700e-02
-3.10626000 1.26402000e-02
-3.07626000 1.27139400e-02
-3.04420000 1.27957500e-02
-3.01420000 1.28761400e-02
-2.98420000 1.29554100e-02
-2.95420000 1.30333500e-02
-2.92420000 1.31159200e-02
-2.89420000 1.32032200e-02
-2.86420000 1.32933200e-02
-2.83420000 1.33868000e-02
-2.80420000 1.34848100e-02
-2.77420000 1.35875400e-02
-2.74420000 1.36953300e-02
-2.71420000 1.38087200e-02
-2.68420000 1.39285200e-02
-2.65420000 1.40557200e-02
-2.62420000 1.41916900e-02
-2.59420000 1.43382100e-02
-2.56214000 1.45091400e-02
-2.53214000 1.46860200e-02
-2.50214000 1.48839000e-02
-2.47214000 1.51092800e-02
-2.44214000 1.53716700e-02
-2.41214000 1.56853300e-02
-2.38214000 1.60724500e-02
-2.35214000 1.65691600e-02
-2.32214000 1.72369700e-02
-2.29214000 1.81873400e-02
-2.26214000 1.96361000e-02
-2.23214000 2.20353400e-02
-2.20214000 2.64019000e-02
-2.17214000 3.49802200e-02
-2.14214000 5.00141400e-02
-2.11214000 5.77903600e-02
-2.08008000 4.30609400e-02
-2.05008000 3.11069200e-02
-2.02008000 2.50858200e-02
-1.99008000 2.20853800e-02
-1.96008000 2.05007400e-02
-1.93008000 1.96292900e-02
-1.90008000 1.91506000e-02
-1.87008000 1.89075800e-02
-1.84008000 1.88180000e-02
-1.81008000 1.88369500e-02
-1.78008000 1.89396800e-02
-1.75008000 1.91133800e-02
-1.72008000 1.93531000e-02
-1.69008000 1.96600800e-02
-1.66008000 2.00413400e-02
-1.63008000 2.05104600e-02
-1.59803000 2.11343600e-02
-1.56803000 2.18709100e-02
-1.53803000 2.28142100e-02
-1.50803000 2.40603100e-02
-1.47803000 2.57763600e-02
-1.44803000 2.82728200e-02
-1.41803000 3.21595200e-02
-1.38803000 3.85223000e-02
-1.35803000 4.82853000e-02
-1.32803000 6.42345000e-02
-1.29803000 9.42183000e-02
-1.26803000 1.23909500e-01
-1.23803000 1.13830100e-01
-1.20803000 8.73595000e-02
-1.17803000 7.95095000e-02
-1.14803000 9.27183000e-02
-1.11597000 1.09080100e-01
-1.08597000 9.42495000e-02
-1.05597000 7.09570000e-02
-1.02597000 5.94855000e-02
-0.99596600 5.21351000e-02
-0.96596600 4.62680000e-02
-0.93596600 4.00477000e-02
-0.90596600 3.55822000e-02
-0.87596600 3.33735000e-02
-0.84596600 3.25304000e-02
-0.81596600 3.25585000e-02
-0.78596600 3.33041000e-02
-0.75596600 3.48284000e-02
-0.72596600 3.74019100e-02
-0.69596600 4.16559500e-02
-0.66596600 4.89926000e-02
-0.63390700 6.37302000e-02
-0.60390700 8.81312000e-02
-0.57390700 1.13639900e-01
-0.54390700 1.35593600e-01
-0.51390700 1.42060700e-01
-0.48390700 1.14675200e-01
-0.45390700 1.02530900e-01
-0.42390700 1.18177800e-01
-0.39390700 1.48607200e-01
-0.36390700 1.48142100e-01
-0.33390700 1.21153900e-01
-0.30390700 9.77164000e-02
-0.27390700 8.14274000e-02
-0.24390700 6.95807000e-02
-0.21390700 6.50532000e-02
-0.18390700 6.71858000e-02
-0.15184800 8.05472000e-02
-0.12184800 9.80802000e-02
-0.09184800 9.01078000e-02
-0.06184800 6.92597000e-02
-0.03184800 5.74494000e-02
-0.00184802 5.21769000e-02
0.02815200 4.92308000e-02
0.05815200 4.74721000e-02
0.08815200 4.68018000e-02
0.11815200 4.71460000e-02
0.14815200 4.83166000e-02
0.17815200 5.03053000e-02
0.20815200 5.33114000e-02
0.23815200 5.71040000e-02
0.26815200 6.02318000e-02
0.29815200 6.37405000e-02
0.33021100 6.91741000e-02
0.36021100 7.66092000e-02
0.39021100 8.74189000e-02
0.42021100 1.02922200e-01
0.45021100 1.26468600e-01
0.48021100 1.64824800e-01
0.51021100 2.08888400e-01
0.54021100 2.39636600e-01
0.57021100 2.99434000e-01
0.60021100 4.23714200e-01
0.63021100 6.64297000e-01
0.66021100 1.07835620e+00
0.69021100 1.44574200e+00
0.72021100 1.23654380e+00
0.75021100 7.99089200e-01
0.78021100 5.27566800e-01
