# E(MeV)  S_GAMTGAMT(K=1) for Am255_DDPCX
-4.00832000 4.42110000e-03
-3.97832000 4.64353000e-03
-3.94832000 4.65331000e-03
-3.91832000 4.77336000e-03
-3.88832000 5.11494000e-03
-3.85832000 5.76837000e-03
-3.82832000 6.99485000e-03
-3.79832000 9.42451000e-03
-3.76832000 1.40517000e-02
-3.73832000 1.83891000e-02
-3.70832000 1.49930000e-02
-3.67832000 1.00412000e-02
-3.64832000 7.33989000e-03
-3.61832000 5.98213000e-03
-3.58832000 5.24352000e-03
-3.55832000 4.79369000e-03
-3.52626000 4.45074000e-03
-3.49626000 4.18402000e-03
-3.46626000 4.07415000e-03
-3.43626000 4.11100000e-03
-3.40626000 4.13668000e-03
-3.37626000 4.14117000e-03
-3.34626000 4.13827000e-03
-3.31626000 4.13295000e-03
-3.28626000 4.12426000e-03
-3.25626000 4.10940000e-03
-3.22626000 4.10565000e-03
-3.19626000 4.13386000e-03
-3.16626000 4.16335000e-03
-3.13626000 4.18618000e-03
-3.10626000 4.20612000e-03
-3.07626000 4.22534000e-03
-3.04420000 4.24610000e-03
-3.01420000 4.26611000e-03
-2.98420000 4.28682000e-03
-2.95420000 4.30832000e-03
-2.92420000 4.33071000e-03
-2.89420000 4.35386000e-03
-2.86420000 4.37705000e-03
-2.83420000 4.40060000e-03
-2.80420000 4.42499000e-03
-2.77420000 4.45014000e-03
-2.74420000 4.47598000e-03
-2.71420000 4.50246000e-03
-2.68420000 4.52958000e-03
-2.65420000 4.55732000e-03
-2.62420000 4.58569000e-03
-2.59420000 4.61470000e-03
-2.56214000 4.64641000e-03
-2.53214000 4.67678000e-03
-2.50214000 4.70783000e-03
-2.47214000 4.73958000e-03
-2.44214000 4.77207000e-03
-2.41214000 4.80532000e-03
-2.38214000 4.83937000e-03
-2.35214000 4.87427000e-03
-2.32214000 4.91004000e-03
-2.29214000 4.94676000e-03
-2.26214000 4.98448000e-03
-2.23214000 5.02327000e-03
-2.20214000 5.06320000e-03
-2.17214000 5.10436000e-03
-2.14214000 5.14687000e-03
-2.11214000 5.19083000e-03
-2.08008000 5.23957000e-03
-2.05008000 5.28701000e-03
-2.02008000 5.33641000e-03
-1.99008000 5.38799000e-03
-1.96008000 5.44202000e-03
-1.93008000 5.49884000e-03
-1.90008000 5.55882000e-03
-1.87008000 5.62246000e-03
-1.84008000 5.69035000e-03
-1.81008000 5.76323000e-03
-1.78008000 5.84205000e-03
-1.75008000 5.92805000e-03
-1.72008000 6.02281000e-03
-1.69008000 6.12848000e-03
-1.66008000 6.24799000e-03
-1.63008000 6.38545000e-03
-1.59803000 6.55893000e-03
-1.56803000 6.75570000e-03
-1.53803000 7.00035000e-03
-1.50803000 7.31673000e-03
-1.47803000 7.74728000e-03
-1.44803000 8.37356000e-03
-1.41803000 9.35966000e-03
-1.38803000 1.09575000e-02
-1.35803000 1.29822000e-02
-1.32803000 1.54006000e-02
-1.29803000 2.05728000e-02
-1.26803000 2.94333000e-02
-1.23803000 3.18027000e-02
-1.20803000 2.46261000e-02
-1.17803000 2.08204000e-02
-1.14803000 2.24884000e-02
-1.11597000 2.86302000e-02
-1.08597000 2.78378000e-02
-1.05597000 2.05620000e-02
-1.02597000 1.62045000e-02
-0.99596600 1.49095000e-02
-0.96596600 1.45974000e-02
-0.93596600 1.30183000e-02
-0.90596600 1.16234000e-02
-0.87596600 1.10050000e-02
-0.84596600 1.08799000e-02
-0.81596600 1.10787000e-02
-0.78596600 1.15648000e-02
-0.75596600 1.23912000e-02
-0.72596600 1.37064000e-02
-0.69596600 1.58340000e-02
-0.66596600 1.94797000e-02
-0.63390700 2.68015000e-02
-0.60390700 3.89372000e-02
-0.57390700 5.16053000e-02
-0.54390700 6.24704000e-02
-0.51390700 6.55582000e-02
-0.48390700 5.16687000e-02
-0.45390700 4.53132000e-02
-0.42390700 5.26876000e-02
-0.39390700 6.71142000e-02
-0.36390700 6.55288000e-02
-0.33390700 5.07832000e-02
-0.30390700 3.97726000e-02
-0.27390700 3.27523000e-02
-0.24390700 2.73190000e-02
-0.21390700 2.51142000e-02
-0.18390700 2.59528000e-02
-0.15184800 3.22460000e-02
-0.12184800 4.07962000e-02
-0.09184800 3.66867000e-02
-0.06184800 2.61951000e-02
-0.03184800 2.00778000e-02
-0.00184802 1.70657000e-02
0.02815200 1.50830000e-02
0.05815200 1.37023000e-02
0.08815200 1.28764000e-02
0.11815200 1.24046000e-02
0.14815200 1.21461000e-02
0.17815200 1.20307000e-02
0.20815200 1.20278000e-02
0.23815200 1.21198000e-02
0.26815200 1.22549000e-02
0.29815200 1.24336000e-02
0.33021100 1.27036000e-02
0.36021100 1.30460000e-02
0.39021100 1.35191000e-02
0.42021100 1.42108000e-02
0.45021100 1.52375000e-02
0.48021100 1.67159000e-02
0.51021100 1.86267000e-02
0.54021100 2.18028000e-02
0.57021100 2.72475000e-02
0.60021100 3.22021000e-02
0.63021100 3.51525000e-02
0.66021100 4.41726000e-02
0.69021100 6.39560000e-02
0.72021100 8.18469000e-02
0.75021100 7.17811000e-02
0.78021100 5.66959000e-02
