# E(MeV)  S_NSDRNSDR(K=1) for Am260_DDPCX
-7.10864000 -1.11849000e+00
-7.07864000 -1.17439000e+00
-7.04864000 -1.28352000e+00
-7.01864000 -1.46005000e+00
-6.98864000 -1.73238000e+00
-6.95864000 -2.15387000e+00
-6.92864000 -2.82750000e+00
-6.89864000 -3.96453000e+00
-6.86864000 -6.03053000e+00
-6.83864000 -1.00836000e+01
-6.80864000 -1.78974000e+01
-6.77864000 -2.62369000e+01
-6.31655000 -3.20869000e+00
-6.28655000 -4.58076000e+00
-6.25655000 -7.17063000e+00
-6.22655000 -1.23667000e+01
-6.19655000 -2.17283000e+01
-6.16655000 -2.72694000e+01
-6.13655000 -1.87576000e+01
-6.10655000 -1.04481000e+01
-6.07655000 -6.12420000e+00
-5.52446000 -1.28909000e-01
-5.49446000 -1.09822000e-01
-5.46446000 -9.26159000e-02
-5.43446000 -7.70027000e-02
-5.40446000 -6.27463000e-02
-5.37446000 -4.96530000e-02
-5.34446000 -3.75621000e-02
-5.31446000 -2.63393000e-02
-5.28446000 -1.58719000e-02
-4.73237000 1.12028000e-01
-4.70237000 1.17494000e-01
-4.67237000 1.22930000e-01
-4.64237000 1.28347000e-01
-4.61237000 1.33756000e-01
-4.58237000 1.39171000e-01
-4.55237000 1.44601000e-01
-4.52237000 1.50059000e-01
-4.49237000 1.55557000e-01
-4.46237000 1.61106000e-01
-4.43237000 1.66720000e-01
-4.40237000 1.72410000e-01
-3.94028000 2.84926000e-01
-3.91028000 2.95883000e-01
-3.88028000 3.07943000e-01
-3.85028000 3.21485000e-01
-3.82028000 3.37127000e-01
-3.79028000 3.55973000e-01
-3.76028000 3.80168000e-01
-3.73028000 4.14275000e-01
-3.70028000 4.68548000e-01
-3.67028000 5.61783000e-01
-3.64028000 6.74086000e-01
-3.61028000 6.59682000e-01
-3.58028000 5.85093000e-01
-3.14819000 3.57781000e+00
-3.11819000 5.57309000e+00
-3.08819000 9.51317000e+00
-3.05819000 1.59982000e+01
-3.02819000 1.88064000e+01
-2.99819000 1.29062000e+01
-2.96819000 7.43153000e+00
-2.93819000 4.59537000e+00
-2.90819000 3.15706000e+00
-2.87819000 2.37324000e+00
-2.84819000 1.91647000e+00
-2.81819000 1.63820000e+00
-2.78819000 1.46610000e+00
-2.35610000 2.78256000e+00
-2.32610000 2.96886000e+00
-2.29610000 3.42920000e+00
-2.26610000 3.74604000e+00
-2.23610000 4.29814000e+00
-2.20610000 5.77619000e+00
-2.17610000 8.86341000e+00
-2.14610000 1.25207000e+01
-2.11610000 1.12077000e+01
-2.08610000 8.10989000e+00
-2.05610000 6.93311000e+00
-2.02610000 7.28101000e+00
-1.99610000 7.80323000e+00
-1.56400000 2.64137000e+01
-1.53400000 3.23418000e+01
-1.50400000 2.39818000e+01
-1.47400000 1.52789000e+01
-1.44400000 1.09341000e+01
-1.41400000 9.10959000e+00
-1.38400000 8.71080000e+00
-1.35400000 9.46973000e+00
-1.32400000 1.17431000e+01
-1.29400000 1.65461000e+01
-1.26400000 2.33220000e+01
-1.23400000 2.53719000e+01
-0.77191300 2.28702000e+01
-0.74191300 1.72009000e+01
-0.71191300 1.49375000e+01
-0.68191300 1.47295000e+01
-0.65191300 1.65772000e+01
-0.62191300 2.11849000e+01
-0.59191300 3.07991000e+01
-0.56191300 4.99090000e+01
-0.53191300 7.41905000e+01
-0.50191300 6.86789000e+01
-0.47191300 4.90203000e+01
-0.44191300 3.97636000e+01
0.02017870 4.33974000e+01
0.05017870 3.78975000e+01
0.08017870 4.04778000e+01
0.11017900 5.27657000e+01
0.14017900 7.84689000e+01
0.17017900 1.05107000e+02
0.20017900 1.06280000e+02
0.23017900 1.12414000e+02
0.26017900 1.02643000e+02
0.29017900 7.02697000e+01
0.32017900 5.16844000e+01
