# E(MeV)  S_GAMTGAMT(K=0) for Am260_DDPCX
-7.10864000 9.02567000e-04
-7.07864000 1.54745000e-03
-7.04864000 1.89527000e-03
-7.01864000 2.09400000e-03
-6.98864000 2.22014000e-03
-6.95864000 2.30790000e-03
-6.92864000 2.37353000e-03
-6.89864000 2.42539000e-03
-6.86864000 2.46817000e-03
-6.83864000 2.50467000e-03
-6.80864000 2.53663000e-03
-6.77864000 2.56523000e-03
-6.74864000 2.59125000e-03
-6.71864000 2.61528000e-03
-6.68864000 2.63773000e-03
-6.65864000 2.65890000e-03
-6.62864000 2.67904000e-03
-6.59864000 2.69832000e-03
-6.56864000 2.71691000e-03
-6.53864000 2.73490000e-03
-6.50864000 2.75241000e-03
-6.47864000 2.76950000e-03
-6.44864000 2.78624000e-03
-6.41864000 2.80269000e-03
-6.38864000 2.81890000e-03
-6.35864000 2.83489000e-03
-6.31655000 2.85705000e-03
-6.28655000 2.87268000e-03
-6.25655000 2.88819000e-03
-6.22655000 2.90361000e-03
-6.19655000 2.91896000e-03
-6.16655000 2.93425000e-03
-6.13655000 2.94949000e-03
-6.10655000 2.96469000e-03
-6.07655000 2.97986000e-03
-6.04655000 2.99500000e-03
-6.01655000 3.01011000e-03
-5.98655000 3.02520000e-03
-5.95655000 3.04025000e-03
-5.92655000 3.05525000e-03
-5.89655000 3.07017000e-03
-5.86655000 3.08497000e-03
-5.83655000 3.09960000e-03
-5.80655000 3.11395000e-03
-5.77655000 3.12789000e-03
-5.74655000 3.14117000e-03
-5.71655000 3.15339000e-03
-5.68655000 3.16388000e-03
-5.65655000 3.17136000e-03
-5.62655000 3.17333000e-03
-5.59655000 3.16447000e-03
-5.56655000 3.13275000e-03
-5.52446000 2.99894000e-03
-5.49446000 2.86410000e-03
-5.46446000 2.94434000e-03
-5.43446000 3.12324000e-03
-5.40446000 3.23615000e-03
-5.37446000 3.30277000e-03
-5.34446000 3.34818000e-03
-5.31446000 3.38416000e-03
-5.28446000 3.41653000e-03
-5.25446000 3.44941000e-03
-5.22446000 3.48615000e-03
-5.19446000 3.51869000e-03
-5.16446000 3.53313000e-03
-5.13446000 3.54701000e-03
-5.10446000 3.56631000e-03
-5.07446000 3.58887000e-03
-5.04446000 3.61337000e-03
-5.01446000 3.63926000e-03
-4.98446000 3.66635000e-03
-4.95446000 3.69456000e-03
-4.92446000 3.72382000e-03
-4.89446000 3.75396000e-03
-4.86446000 3.78465000e-03
-4.83446000 3.81510000e-03
-4.80446000 3.84362000e-03
-4.77446000 3.86661000e-03
-4.73237000 3.87256000e-03
-4.70237000 3.82728000e-03
-4.67237000 3.67504000e-03
-4.64237000 3.30483000e-03
-4.61237000 2.89494000e-03
-4.58237000 3.37402000e-03
-4.55237000 4.25262000e-03
-4.52237000 4.98582000e-03
-4.49237000 5.72974000e-03
-4.46237000 6.71673000e-03
-4.43237000 8.28098000e-03
-4.40237000 1.10961000e-02
-4.37237000 1.66306000e-02
-4.34237000 2.65864000e-02
-4.31237000 3.27711000e-02
-4.28237000 2.39199000e-02
-4.25237000 1.50573000e-02
-4.22237000 1.04523000e-02
-4.19237000 8.12263000e-03
-4.16237000 6.85114000e-03
-4.13237000 6.10228000e-03
-4.10237000 5.63348000e-03
-4.07237000 5.32616000e-03
-4.04237000 5.11780000e-03
-4.01237000 4.97326000e-03
-3.98237000 4.87167000e-03
-3.94028000 4.77761000e-03
-3.91028000 4.73449000e-03
-3.88028000 4.70558000e-03
-3.85028000 4.68752000e-03
-3.82028000 4.67795000e-03
-3.79028000 4.67513000e-03
-3.76028000 4.67780000e-03
-3.73028000 4.68501000e-03
-3.70028000 4.69603000e-03
-3.67028000 4.71033000e-03
-3.64028000 4.72749000e-03
-3.61028000 4.74718000e-03
-3.58028000 4.76916000e-03
-3.55028000 4.79324000e-03
-3.52028000 4.81930000e-03
-3.49028000 4.84724000e-03
-3.46028000 4.87700000e-03
-3.43028000 4.90854000e-03
-3.40028000 4.94189000e-03
-3.37028000 4.97705000e-03
-3.34028000 5.01410000e-03
-3.31028000 5.05311000e-03
-3.28028000 5.09420000e-03
-3.25028000 5.13754000e-03
-3.22028000 5.18332000e-03
-3.19028000 5.23180000e-03
-3.14819000 5.30498000e-03
-3.11819000 5.36140000e-03
-3.08819000 5.42200000e-03
-3.05819000 5.48753000e-03
-3.02819000 5.55896000e-03
-2.99819000 5.63763000e-03
-2.96819000 5.72539000e-03
-2.93819000 5.82490000e-03
-2.90819000 5.94014000e-03
-2.87819000 6.07734000e-03
-2.84819000 6.24684000e-03
-2.81819000 6.46697000e-03
-2.78819000 6.77288000e-03
-2.75819000 7.23808000e-03
-2.72819000 8.02703000e-03
-2.69819000 9.47581000e-03
-2.66819000 1.16121000e-02
-2.63819000 1.19574000e-02
-2.60819000 1.04399000e-02
-2.57819000 9.67226000e-03
-2.54819000 9.55776000e-03
-2.51819000 9.73764000e-03
-2.48819000 1.03115000e-02
-2.45819000 1.14621000e-02
-2.42819000 1.35052000e-02
-2.39819000 1.71877000e-02
-2.35610000 2.88529000e-02
-2.32610000 4.62939000e-02
-2.29610000 6.04117000e-02
-2.26610000 4.66587000e-02
-2.23610000 3.00595000e-02
-2.20610000 2.18031000e-02
-2.17610000 1.86741000e-02
-2.14610000 1.77900000e-02
-2.11610000 1.67913000e-02
-2.08610000 1.69283000e-02
-2.05610000 1.96210000e-02
-2.02610000 2.64693000e-02
-1.99610000 3.73149000e-02
-1.96610000 3.77758000e-02
-1.93610000 2.77799000e-02
-1.90610000 2.14031000e-02
-1.87610000 1.73742000e-02
-1.84610000 1.49974000e-02
-1.81610000 1.41443000e-02
-1.78610000 1.44300000e-02
-1.75610000 1.59511000e-02
-1.72610000 1.95092000e-02
-1.69610000 2.68246000e-02
-1.66610000 3.62912000e-02
-1.63610000 3.39159000e-02
-1.60610000 2.52163000e-02
-1.56400000 2.00455000e-02
-1.53400000 2.02736000e-02
-1.50400000 2.32955000e-02
-1.47400000 3.05824000e-02
-1.44400000 4.60199000e-02
-1.41400000 7.05605000e-02
-1.38400000 7.43176000e-02
-1.35400000 5.00566000e-02
-1.32400000 3.21601000e-02
-1.29400000 2.31594000e-02
-1.26400000 1.85879000e-02
-1.23400000 1.61431000e-02
-1.20400000 1.48027000e-02
-1.17400000 1.40842000e-02
-1.14400000 1.39204000e-02
-1.11400000 1.42747000e-02
-1.08400000 1.43049000e-02
-1.05400000 1.36500000e-02
-1.02400000 1.32707000e-02
-0.99400400 1.32594000e-02
-0.96400400 1.35211000e-02
-0.93400400 1.40585000e-02
-0.90400400 1.48248000e-02
-0.87400400 1.53563000e-02
-0.84400400 1.58292000e-02
-0.81400400 1.67394000e-02
-0.77191300 1.89170000e-02
-0.74191300 2.07229000e-02
-0.71191300 2.30395000e-02
-0.68191300 2.69363000e-02
-0.65191300 3.36973000e-02
-0.62191300 4.60595000e-02
-0.59191300 6.77489000e-02
-0.56191300 8.93051000e-02
-0.53191300 9.79363000e-02
-0.50191300 1.03631000e-01
-0.47191300 1.10622000e-01
-0.44191300 1.18830000e-01
-0.41191300 1.43243000e-01
-0.38191300 1.84126000e-01
-0.35191300 1.71429000e-01
-0.32191300 1.20368000e-01
-0.29191300 8.40805000e-02
-0.26191300 5.85138000e-02
-0.23191300 4.37360000e-02
-0.20191300 3.57491000e-02
-0.17191300 3.12976000e-02
-0.14191300 2.87967000e-02
-0.11191300 2.75051000e-02
-0.08191260 2.70809000e-02
-0.05191260 2.74061000e-02
-0.02191260 2.85411000e-02
0.02017870 3.21291000e-02
0.05017870 3.73960000e-02
0.08017870 4.75956000e-02
0.11017900 6.63304000e-02
0.14017900 8.21578000e-02
0.17017900 6.92800000e-02
0.20017900 5.33508000e-02
0.23017900 4.63746000e-02
0.26017900 4.46514000e-02
0.29017900 4.47690000e-02
0.32017900 4.63395000e-02
0.35017900 4.97879000e-02
0.38017900 5.52791000e-02
0.41017900 6.33961000e-02
0.44017900 7.53153000e-02
0.47017900 9.11187000e-02
0.50017900 1.09079000e-01
0.53017900 1.36209000e-01
0.56017900 1.82594000e-01
0.59017900 2.64775000e-01
0.62017900 4.20928000e-01
0.65017900 7.32233000e-01
0.68017900 1.22747000e+00
0.71017900 1.31552000e+00
0.74017900 8.41893000e-01
0.77017900 4.99233000e-01
