# E(MeV)  S_GAMTGAMT(K=1) for Am260_DDPCX
-7.10864000 2.06225000e-03
-7.07864000 2.26491000e-03
-7.04864000 2.38292000e-03
-7.01864000 2.45884000e-03
-6.98864000 2.51205000e-03
-6.95864000 2.55202000e-03
-6.92864000 2.58376000e-03
-6.89864000 2.61004000e-03
-6.86864000 2.63247000e-03
-6.83864000 2.65192000e-03
-6.80864000 2.66870000e-03
-6.77864000 2.68246000e-03
-6.74864000 2.69207000e-03
-6.71864000 2.69794000e-03
-6.68864000 2.70445000e-03
-6.65864000 2.70161000e-03
-6.62864000 2.68259000e-03
-6.59864000 2.69069000e-03
-6.56864000 2.74094000e-03
-6.53864000 2.78151000e-03
-6.50864000 2.80864000e-03
-6.47864000 2.82903000e-03
-6.44864000 2.84611000e-03
-6.41864000 2.86139000e-03
-6.38864000 2.87552000e-03
-6.35864000 2.88878000e-03
-6.31655000 2.90605000e-03
-6.28655000 2.91728000e-03
-6.25655000 2.92733000e-03
-6.22655000 2.93569000e-03
-6.19655000 2.94148000e-03
-6.16655000 2.94308000e-03
-6.13655000 2.93731000e-03
-6.10655000 2.91758000e-03
-6.07655000 2.86910000e-03
-6.04655000 2.75879000e-03
-6.01655000 2.54562000e-03
-5.98655000 2.40635000e-03
-5.95655000 2.61995000e-03
-5.92655000 2.84465000e-03
-5.89655000 2.96942000e-03
-5.86655000 3.03996000e-03
-5.83655000 3.08535000e-03
-5.80655000 3.11837000e-03
-5.77655000 3.14482000e-03
-5.74655000 3.16752000e-03
-5.71655000 3.18796000e-03
-5.68655000 3.20698000e-03
-5.65655000 3.22507000e-03
-5.62655000 3.24253000e-03
-5.59655000 3.25957000e-03
-5.56655000 3.27632000e-03
-5.52446000 3.29950000e-03
-5.49446000 3.31588000e-03
-5.46446000 3.33222000e-03
-5.43446000 3.34857000e-03
-5.40446000 3.36508000e-03
-5.37446000 3.38199000e-03
-5.34446000 3.39993000e-03
-5.31446000 3.42044000e-03
-5.28446000 3.44590000e-03
-5.25446000 3.46669000e-03
-5.22446000 3.45254000e-03
-5.19446000 3.44749000e-03
-5.16446000 3.45270000e-03
-5.13446000 3.44824000e-03
-5.10446000 3.42471000e-03
-5.07446000 3.36292000e-03
-5.04446000 3.21981000e-03
-5.01446000 2.96001000e-03
-4.98446000 2.86875000e-03
-4.95446000 3.15981000e-03
-4.92446000 3.40999000e-03
-4.89446000 3.55243000e-03
-4.86446000 3.64209000e-03
-4.83446000 3.71021000e-03
-4.80446000 3.77167000e-03
-4.77446000 3.83588000e-03
-4.73237000 3.95220000e-03
-4.70237000 4.07906000e-03
-4.67237000 4.28878000e-03
-4.64237000 4.67880000e-03
-4.61237000 5.40380000e-03
-4.58237000 6.08822000e-03
-4.55237000 5.53886000e-03
-4.52237000 4.80330000e-03
-4.49237000 4.43951000e-03
-4.46237000 4.26923000e-03
-4.43237000 4.18676000e-03
-4.40237000 4.14738000e-03
-4.37237000 4.13110000e-03
-4.34237000 4.12824000e-03
-4.31237000 4.13374000e-03
-4.28237000 4.14481000e-03
-4.25237000 4.15986000e-03
-4.22237000 4.17792000e-03
-4.19237000 4.19846000e-03
-4.16237000 4.22122000e-03
-4.13237000 4.24614000e-03
-4.10237000 4.27338000e-03
-4.07237000 4.30339000e-03
-4.04237000 4.33699000e-03
-4.01237000 4.37572000e-03
-3.98237000 4.42245000e-03
-3.94028000 4.51345000e-03
-3.91028000 4.61642000e-03
-3.88028000 4.79174000e-03
-3.85028000 5.10737000e-03
-3.82028000 5.46884000e-03
-3.79028000 5.34595000e-03
-3.76028000 5.02904000e-03
-3.73028000 4.86197000e-03
-3.70028000 4.79746000e-03
-3.67028000 4.78210000e-03
-3.64028000 4.79177000e-03
-3.61028000 4.81607000e-03
-3.58028000 4.85044000e-03
-3.55028000 4.89302000e-03
-3.52028000 4.94340000e-03
-3.49028000 5.00220000e-03
-3.46028000 5.07094000e-03
-3.43028000 5.15223000e-03
-3.40028000 5.25019000e-03
-3.37028000 5.37132000e-03
-3.34028000 5.52605000e-03
-3.31028000 5.73183000e-03
-3.28028000 6.01929000e-03
-3.25028000 6.44566000e-03
-3.22028000 7.12576000e-03
-3.19028000 8.30740000e-03
-3.14819000 1.20039000e-02
-3.11819000 1.74404000e-02
-3.08819000 2.13851000e-02
-3.05819000 1.68158000e-02
-3.02819000 1.17492000e-02
-2.99819000 9.10588000e-03
-2.96819000 7.80052000e-03
-2.93819000 7.12160000e-03
-2.90819000 6.75657000e-03
-2.87819000 6.56690000e-03
-2.84819000 6.48891000e-03
-2.81819000 6.49509000e-03
-2.78819000 6.58013000e-03
-2.75819000 6.75937000e-03
-2.72819000 7.07913000e-03
-2.69819000 7.64675000e-03
-2.66819000 8.69140000e-03
-2.63819000 1.05810000e-02
-2.60819000 1.26683000e-02
-2.57819000 1.33019000e-02
-2.54819000 1.38713000e-02
-2.51819000 1.48541000e-02
-2.48819000 1.55968000e-02
-2.45819000 1.29195000e-02
-2.42819000 1.01402000e-02
-2.39819000 8.66920000e-03
-2.35610000 7.76870000e-03
-2.32610000 7.49713000e-03
-2.29610000 7.37812000e-03
-2.26610000 7.35697000e-03
-2.23610000 7.41109000e-03
-2.20610000 7.53663000e-03
-2.17610000 7.74583000e-03
-2.14610000 8.07104000e-03
-2.11610000 8.57647000e-03
-2.08610000 9.40843000e-03
-2.05610000 1.09103000e-02
-2.02610000 1.38280000e-02
-1.99610000 1.89478000e-02
-1.96610000 2.19351000e-02
-1.93610000 1.77604000e-02
-1.90610000 1.37306000e-02
-1.87610000 1.18800000e-02
-1.84610000 1.13414000e-02
-1.81610000 1.16630000e-02
-1.78610000 1.28807000e-02
-1.75610000 1.55493000e-02
-1.72610000 2.10837000e-02
-1.69610000 3.07615000e-02
-1.66610000 3.55841000e-02
-1.63610000 2.80166000e-02
-1.60610000 2.04445000e-02
-1.56400000 1.54854000e-02
-1.53400000 1.39861000e-02
-1.50400000 1.34289000e-02
-1.47400000 1.41311000e-02
-1.44400000 1.67495000e-02
-1.41400000 2.08093000e-02
-1.38400000 2.00343000e-02
-1.35400000 1.55746000e-02
-1.32400000 1.27852000e-02
-1.29400000 1.14301000e-02
-1.26400000 1.07745000e-02
-1.23400000 1.04727000e-02
-1.20400000 1.03792000e-02
-1.17400000 1.04410000e-02
-1.14400000 1.06555000e-02
-1.11400000 1.10473000e-02
-1.08400000 1.17326000e-02
-1.05400000 1.25522000e-02
-1.02400000 1.26585000e-02
-0.99400400 1.25292000e-02
-0.96400400 1.26073000e-02
-0.93400400 1.30588000e-02
-0.90400400 1.39385000e-02
-0.87400400 1.54125000e-02
-0.84400400 1.79142000e-02
-0.81400400 2.23859000e-02
-0.77191300 3.61949000e-02
-0.74191300 5.16820000e-02
-0.71191300 5.04378000e-02
-0.68191300 3.59135000e-02
-0.65191300 2.71871000e-02
-0.62191300 2.39436000e-02
-0.59191300 2.41550000e-02
-0.56191300 2.76630000e-02
-0.53191300 3.53574000e-02
-0.50191300 4.60541000e-02
-0.47191300 4.87256000e-02
-0.44191300 3.89646000e-02
-0.41191300 3.21402000e-02
-0.38191300 3.11003000e-02
-0.35191300 3.27168000e-02
-0.32191300 3.11373000e-02
-0.29191300 2.88707000e-02
-0.26191300 2.72080000e-02
-0.23191300 2.64861000e-02
-0.20191300 2.71964000e-02
-0.17191300 2.98104000e-02
-0.14191300 3.49631000e-02
-0.11191300 4.39378000e-02
-0.08191260 5.78503000e-02
-0.05191260 7.82785000e-02
-0.02191260 9.73678000e-02
0.02017870 1.34340000e-01
0.05017870 1.45838000e-01
0.08017870 1.33559000e-01
0.11017900 1.49125000e-01
0.14017900 1.85118000e-01
0.17017900 2.26113000e-01
0.20017900 2.29190000e-01
0.23017900 1.56277000e-01
0.26017900 1.02524000e-01
0.29017900 7.91770000e-02
0.32017900 7.09941000e-02
0.35017900 7.02597000e-02
0.38017900 6.34127000e-02
0.41017900 4.91447000e-02
0.44017900 4.00085000e-02
0.47017900 3.54127000e-02
0.50017900 3.32986000e-02
0.53017900 3.28254000e-02
0.56017900 3.36260000e-02
0.59017900 3.52566000e-02
0.62017900 3.76746000e-02
0.65017900 4.10916000e-02
0.68017900 4.60097000e-02
0.71017900 5.55035000e-02
0.74017900 7.42970000e-02
0.77017900 1.11933000e-01
