# E(MeV)  S_GAMTGAMT(K=0) for At227_DDPCX
-4.47148000 3.31182000e-03
-4.44148000 3.34046000e-03
-4.41148000 3.54439000e-03
-4.38148000 3.68375000e-03
-4.35148000 3.76569000e-03
-4.32148000 3.82067000e-03
-4.29148000 3.86315000e-03
-4.26148000 3.89947000e-03
-4.23148000 3.93260000e-03
-4.20148000 3.96401000e-03
-4.17148000 3.99453000e-03
-4.14148000 4.02462000e-03
-4.11148000 4.05459000e-03
-4.08148000 4.08461000e-03
-4.05148000 4.11482000e-03
-4.02148000 4.14531000e-03
-3.99148000 4.17617000e-03
-3.94310000 4.22683000e-03
-3.91310000 4.25888000e-03
-3.88310000 4.29147000e-03
-3.85310000 4.32463000e-03
-3.82310000 4.35841000e-03
-3.79310000 4.39284000e-03
-3.76310000 4.42797000e-03
-3.73310000 4.46383000e-03
-3.70310000 4.50046000e-03
-3.67310000 4.53792000e-03
-3.64310000 4.57625000e-03
-3.61310000 4.61550000e-03
-3.58310000 4.65573000e-03
-3.55310000 4.69700000e-03
-3.52310000 4.73938000e-03
-3.49310000 4.78295000e-03
-3.46310000 4.82778000e-03
-3.41473000 4.90298000e-03
-3.38473000 4.95159000e-03
-3.35473000 5.00185000e-03
-3.32473000 5.05392000e-03
-3.29473000 5.10794000e-03
-3.26473000 5.16410000e-03
-3.23473000 5.22261000e-03
-3.20473000 5.28373000e-03
-3.17473000 5.34773000e-03
-3.14473000 5.41496000e-03
-3.11473000 5.48583000e-03
-3.08473000 5.56081000e-03
-3.05473000 5.64052000e-03
-3.02473000 5.72570000e-03
-2.99473000 5.81730000e-03
-2.96473000 5.91657000e-03
-2.93473000 6.02525000e-03
-2.88635000 6.22703000e-03
-2.85635000 6.37577000e-03
-2.82635000 6.55305000e-03
-2.79635000 6.77769000e-03
-2.76635000 7.08898000e-03
-2.73635000 7.53454000e-03
-2.70635000 7.92645000e-03
-2.67635000 7.98878000e-03
-2.64635000 8.10114000e-03
-2.61635000 8.39417000e-03
-2.58635000 8.84993000e-03
-2.55635000 9.48746000e-03
-2.52635000 1.03779000e-02
-2.49635000 1.16713000e-02
-2.46635000 1.36631000e-02
-2.43635000 1.67572000e-02
-2.40635000 2.05889000e-02
-2.35798000 3.08530000e-02
-2.32798000 4.61975000e-02
-2.29798000 7.59555000e-02
-2.26798000 1.10049000e-01
-2.23798000 9.29027000e-02
-2.20798000 5.62294000e-02
-2.17798000 3.52804000e-02
-2.14798000 2.48832000e-02
-2.11798000 1.94440000e-02
-2.08798000 1.64284000e-02
-2.05798000 1.47315000e-02
-2.02798000 1.38639000e-02
-1.99798000 1.36451000e-02
-1.96798000 1.41269000e-02
-1.93798000 1.56816000e-02
-1.90798000 1.92504000e-02
-1.87798000 2.54690000e-02
-1.82960000 2.42083000e-02
-1.79960000 1.87397000e-02
-1.76960000 1.59632000e-02
-1.73960000 1.43770000e-02
-1.70960000 1.35221000e-02
-1.67960000 1.32484000e-02
-1.64960000 1.33511000e-02
-1.61960000 1.37389000e-02
-1.58960000 1.44042000e-02
-1.55960000 1.54079000e-02
-1.52960000 1.68944000e-02
-1.49960000 1.90268000e-02
-1.46960000 2.15826000e-02
-1.43960000 2.49684000e-02
-1.40960000 3.06809000e-02
-1.37960000 4.07449000e-02
-1.34960000 5.96010000e-02
-1.30123000 1.35067000e-01
-1.27123000 1.96536000e-01
-1.24123000 1.63629000e-01
-1.21123000 9.79186000e-02
-1.18123000 6.07038000e-02
-1.15123000 4.21954000e-02
-1.12123000 3.24423000e-02
-1.09123000 2.69433000e-02
-1.06123000 2.37193000e-02
-1.03123000 2.18701000e-02
-1.00123000 2.10278000e-02
-0.97123000 2.11490000e-02
-0.94123000 2.18610000e-02
-0.91123000 2.14072000e-02
-0.88123000 2.05826000e-02
-0.85123000 2.07178000e-02
-0.82123000 2.17925000e-02
-0.77285500 2.24279000e-02
-0.74285500 2.24656000e-02
-0.71285500 2.34451000e-02
-0.68285500 2.55085000e-02
-0.65285500 2.92066000e-02
-0.62285500 3.60557000e-02
-0.59285500 4.93285000e-02
-0.56285500 6.98409000e-02
-0.53285500 7.39888000e-02
-0.50285500 5.62019000e-02
-0.47285500 4.26492000e-02
-0.44285500 3.63448000e-02
-0.41285500 3.38995000e-02
-0.38285500 3.34298000e-02
-0.35285500 3.41601000e-02
-0.32285500 3.59438000e-02
-0.29285500 3.88954000e-02
-0.24448000 4.53342000e-02
-0.21448000 4.86892000e-02
-0.18448000 5.16797000e-02
-0.15448000 5.70819000e-02
-0.12448000 6.58867000e-02
-0.09447980 7.85510000e-02
-0.06447980 9.66229000e-02
-0.03447980 1.25471000e-01
-0.00447985 1.66871000e-01
0.02552020 2.20493000e-01
0.05552020 2.30360000e-01
0.08552020 1.99508000e-01
0.11552000 1.94945000e-01
0.14552000 2.16644000e-01
0.17552000 2.64916000e-01
0.20552000 3.48121000e-01
0.23552000 4.60442000e-01
0.28389500 6.98582000e-01
0.31389500 1.08503000e+00
0.34389500 1.89211000e+00
0.37389500 2.99782000e+00
0.40389500 2.77453000e+00
0.43389500 1.63980000e+00
0.46389500 9.35483000e-01
0.49389500 5.84485000e-01
0.52389500 4.01895000e-01
0.55389500 3.01591000e-01
0.58389500 2.47953000e-01
0.61389500 2.26392000e-01
0.64389500 2.12777000e-01
0.67389500 1.81723000e-01
0.70389500 1.61684000e-01
0.73389500 1.60873000e-01
0.76389500 1.55673000e-01
