# E(MeV)  S_GAMTGAMT(K=0) for At220_DDPCX
-3.86520000 2.98322000e-03
-3.83520000 3.00765000e-03
-3.80520000 3.03114000e-03
-3.77520000 3.05395000e-03
-3.74520000 3.07626000e-03
-3.71520000 3.09818000e-03
-3.68520000 3.11983000e-03
-3.65520000 3.14126000e-03
-3.62520000 3.16252000e-03
-3.59520000 3.18366000e-03
-3.56520000 3.20469000e-03
-3.53520000 3.22561000e-03
-3.50520000 3.24642000e-03
-3.47520000 3.26707000e-03
-3.44520000 3.28746000e-03
-3.39745000 3.31892000e-03
-3.36745000 3.33744000e-03
-3.33745000 3.35395000e-03
-3.30745000 3.36638000e-03
-3.27745000 3.36999000e-03
-3.24745000 3.35511000e-03
-3.21745000 3.32237000e-03
-3.18745000 3.34621000e-03
-3.15745000 3.42511000e-03
-3.12745000 3.48569000e-03
-3.09745000 3.52803000e-03
-3.06745000 3.56176000e-03
-3.03745000 3.59155000e-03
-3.00745000 3.61947000e-03
-2.97745000 3.64650000e-03
-2.92970000 3.68879000e-03
-2.89970000 3.71528000e-03
-2.86970000 3.74186000e-03
-2.83970000 3.76861000e-03
-2.80970000 3.79559000e-03
-2.77970000 3.82284000e-03
-2.74970000 3.85038000e-03
-2.71970000 3.87825000e-03
-2.68970000 3.90647000e-03
-2.65970000 3.93506000e-03
-2.62970000 3.96404000e-03
-2.59970000 3.99342000e-03
-2.56970000 4.02323000e-03
-2.53970000 4.05347000e-03
-2.50970000 4.08418000e-03
-2.46196000 4.13404000e-03
-2.43196000 4.16603000e-03
-2.40196000 4.19855000e-03
-2.37196000 4.23162000e-03
-2.34196000 4.26526000e-03
-2.31196000 4.29952000e-03
-2.28196000 4.33441000e-03
-2.25196000 4.36996000e-03
-2.22196000 4.40622000e-03
-2.19196000 4.44323000e-03
-2.16196000 4.48103000e-03
-2.13196000 4.51969000e-03
-2.10196000 4.55927000e-03
-2.07196000 4.59984000e-03
-2.04196000 4.64153000e-03
-1.99421000 4.71047000e-03
-1.96421000 4.75569000e-03
-1.93421000 4.80267000e-03
-1.90421000 4.85176000e-03
-1.87421000 4.90344000e-03
-1.84421000 4.95841000e-03
-1.81421000 5.01774000e-03
-1.78421000 5.08307000e-03
-1.75421000 5.15714000e-03
-1.72421000 5.24466000e-03
-1.69421000 5.35435000e-03
-1.66421000 5.50355000e-03
-1.63421000 5.72957000e-03
-1.60421000 6.11738000e-03
-1.57421000 6.83785000e-03
-1.52646000 8.05157000e-03
-1.49646000 7.28699000e-03
-1.46646000 6.54178000e-03
-1.43646000 6.18444000e-03
-1.40646000 6.03384000e-03
-1.37646000 5.98040000e-03
-1.34646000 5.97598000e-03
-1.31646000 5.99882000e-03
-1.28646000 6.03832000e-03
-1.25646000 6.08896000e-03
-1.22646000 6.14770000e-03
-1.19646000 6.21279000e-03
-1.16646000 6.28324000e-03
-1.13646000 6.35846000e-03
-1.10646000 6.43816000e-03
-1.05872000 6.57403000e-03
-1.02872000 6.66517000e-03
-0.99871700 6.76097000e-03
-0.96871700 6.86175000e-03
-0.93871700 6.96788000e-03
-0.90871700 7.07987000e-03
-0.87871700 7.19839000e-03
-0.84871700 7.32425000e-03
-0.81871700 7.45857000e-03
-0.78871700 7.60283000e-03
-0.75871700 7.75917000e-03
-0.72871700 7.93090000e-03
-0.69871700 8.12354000e-03
-0.66871700 8.34744000e-03
-0.63871700 8.62407000e-03
-0.59097000 9.29460000e-03
-0.56097000 9.84068000e-03
-0.53097000 1.00098000e-02
-0.50097000 1.00076000e-02
-0.47097000 1.01734000e-02
-0.44097000 1.04836000e-02
-0.41097000 1.09038000e-02
-0.38097000 1.14317000e-02
-0.35097000 1.20859000e-02
-0.32097000 1.29040000e-02
-0.29097000 1.39471000e-02
-0.26097000 1.53141000e-02
-0.23097000 1.71678000e-02
-0.20097000 1.97897000e-02
-0.17097000 2.36954000e-02
-0.12322400 3.54359000e-02
-0.09322350 5.07124000e-02
-0.06322350 8.06682000e-02
-0.03322350 1.37226000e-01
-0.00322353 1.88032000e-01
0.02677650 1.45261000e-01
0.05677650 8.64019000e-02
0.08677650 5.46528000e-02
0.11677600 3.88629000e-02
0.14677600 3.05388000e-02
0.17677600 2.59244000e-02
0.20677600 2.33914000e-02
0.23677600 2.23058000e-02
0.26677600 2.26389000e-02
0.29677600 2.44927000e-02
0.34452300 2.38654000e-02
0.37452300 2.13893000e-02
0.40452300 2.01674000e-02
0.43452300 1.97937000e-02
0.46452300 1.98909000e-02
0.49452300 2.02951000e-02
0.52452300 2.09456000e-02
0.55452300 2.18329000e-02
0.58452300 2.29804000e-02
0.61452300 2.44439000e-02
0.64452300 2.63217000e-02
0.67452300 2.87656000e-02
0.70452300 3.19509000e-02
0.73452300 3.62612000e-02
0.76452300 4.25710000e-02
