# E(MeV)  S_GAMTGAMT(Total=K0+2*K1) for At227_DDPCX
-4.47148000 9.99086000e-03
-4.44148000 1.01284400e-02
-4.41148000 1.04626900e-02
-4.38148000 1.06957300e-02
-4.35148000 1.08536300e-02
-4.32148000 1.09823100e-02
-4.29148000 1.11086700e-02
-4.26148000 1.12570700e-02
-4.23148000 1.14666600e-02
-4.20148000 1.17810500e-02
-4.17148000 1.20080100e-02
-4.14148000 1.18705400e-02
-4.11148000 1.17295900e-02
-4.08148000 1.16922100e-02
-4.05148000 1.17108800e-02
-4.02148000 1.17561100e-02
-3.99148000 1.18149700e-02
-3.94310000 1.19250900e-02
-3.91310000 1.19991000e-02
-3.88310000 1.20761700e-02
-3.85310000 1.21557300e-02
-3.82310000 1.22375100e-02
-3.79310000 1.23213000e-02
-3.76310000 1.24070700e-02
-3.73310000 1.24947300e-02
-3.70310000 1.25843000e-02
-3.67310000 1.26758600e-02
-3.64310000 1.27694100e-02
-3.61310000 1.28650600e-02
-3.58310000 1.29628700e-02
-3.55310000 1.30629400e-02
-3.52310000 1.31654200e-02
-3.49310000 1.32704500e-02
-3.46310000 1.33781400e-02
-3.41473000 1.35578800e-02
-3.38473000 1.36734500e-02
-3.35473000 1.37924300e-02
-3.32473000 1.39151200e-02
-3.29473000 1.40418000e-02
-3.26473000 1.41728200e-02
-3.23473000 1.43086100e-02
-3.20473000 1.44496700e-02
-3.17473000 1.45965500e-02
-3.14473000 1.47499600e-02
-3.11473000 1.49107100e-02
-3.08473000 1.50798500e-02
-3.05473000 1.52587000e-02
-3.02473000 1.54489200e-02
-2.99473000 1.56527600e-02
-2.96473000 1.58733500e-02
-2.93473000 1.61152700e-02
-2.88635000 1.65699100e-02
-2.85635000 1.69146700e-02
-2.82635000 1.73436500e-02
-2.79635000 1.79261500e-02
-2.76635000 1.88135800e-02
-2.73635000 2.02126000e-02
-2.70635000 2.14346500e-02
-2.67635000 2.11020400e-02
-2.64635000 2.07055600e-02
-2.61635000 2.08491100e-02
-2.58635000 2.13996900e-02
-2.55635000 2.23056600e-02
-2.52635000 2.36160000e-02
-2.49635000 2.55082600e-02
-2.46635000 2.83648400e-02
-2.43635000 3.27804200e-02
-2.40635000 3.87216400e-02
-2.35798000 5.44708000e-02
-2.32798000 7.38203000e-02
-2.29798000 1.05552300e-01
-2.26798000 1.43765000e-01
-2.23798000 1.38478700e-01
-2.20798000 1.24505800e-01
-2.17798000 1.15626800e-01
-2.14798000 8.42614000e-02
-2.11798000 5.99150000e-02
-2.08798000 4.78408000e-02
-2.05798000 4.20621000e-02
-2.02798000 3.92419000e-02
-1.99798000 3.87765000e-02
-1.96798000 4.05961000e-02
-1.93798000 4.51892000e-02
-1.90798000 5.37104000e-02
-1.87798000 6.85848000e-02
-1.82960000 1.02532900e-01
-1.79960000 1.46733700e-01
-1.76960000 1.89261200e-01
-1.73960000 1.59494600e-01
-1.70960000 1.15892900e-01
-1.67960000 8.24778000e-02
-1.64960000 6.27947000e-02
-1.61960000 5.17703000e-02
-1.58960000 4.56306000e-02
-1.55960000 4.28561000e-02
-1.52960000 4.24626000e-02
-1.49960000 4.41672000e-02
-1.46960000 4.68780000e-02
-1.43960000 4.89804000e-02
-1.40960000 5.32437000e-02
-1.37960000 6.26519000e-02
-1.34960000 8.14440000e-02
-1.30123000 1.57584800e-01
-1.27123000 2.19511600e-01
-1.24123000 1.87288200e-01
-1.21123000 1.22814000e-01
-1.18123000 8.76828000e-02
-1.15123000 7.25342000e-02
-1.12123000 6.66697000e-02
-1.09123000 6.32611000e-02
-1.06123000 6.04341000e-02
-1.03123000 6.06745000e-02
-1.00123000 6.46530000e-02
-0.97123000 7.30718000e-02
-0.94123000 8.77218000e-02
-0.91123000 1.11734600e-01
-0.88123000 1.56011600e-01
-0.85123000 2.41893800e-01
-0.82123000 3.55874500e-01
-0.77285500 3.38811900e-01
-0.74285500 2.83593600e-01
-0.71285500 2.00037900e-01
-0.68285500 1.45928500e-01
-0.65285500 1.17574800e-01
-0.62285500 1.08481300e-01
-0.59285500 1.17008300e-01
-0.56285500 1.43257900e-01
-0.53285500 1.66485000e-01
-0.50285500 1.66858900e-01
-0.47285500 1.35888600e-01
-0.44285500 1.05783400e-01
-0.41285500 9.14281000e-02
-0.38285500 8.70708000e-02
-0.35285500 8.59767000e-02
-0.32285500 8.59494000e-02
-0.29285500 8.97398000e-02
-0.24448000 1.02578200e-01
-0.21448000 1.09178800e-01
-0.18448000 1.17851700e-01
-0.15448000 1.34765100e-01
-0.12448000 1.65685900e-01
-0.09447980 2.21118800e-01
-0.06447980 3.23644900e-01
-0.03447980 4.85189000e-01
-0.00447985 5.53593000e-01
0.02552020 4.90319000e-01
0.05552020 4.23273200e-01
0.08552020 3.75845000e-01
0.11552000 4.06401000e-01
0.14552000 4.90112000e-01
0.17552000 5.18400000e-01
0.20552000 5.19481200e-01
0.23552000 5.77798200e-01
0.28389500 7.77888400e-01
0.31389500 1.15486540e+00
0.34389500 1.95756680e+00
0.37389500 3.06242900e+00
0.40389500 2.84174400e+00
0.43389500 1.71429660e+00
0.46389500 1.02181420e+00
0.49389500 6.78152400e-01
0.52389500 5.00348600e-01
0.55389500 4.02335600e-01
0.58389500 3.48485800e-01
0.61389500 3.35611000e-01
0.64389500 3.43257000e-01
0.67389500 3.48897200e-01
0.70389500 3.73246000e-01
0.73389500 4.33851000e-01
0.76389500 5.48989000e-01
