# E(MeV)  S_GAMTGAMT(K=1) for At227_DDPCX
-4.47148000 3.33952000e-03
-4.44148000 3.39399000e-03
-4.41148000 3.45915000e-03
-4.38148000 3.50599000e-03
-4.35148000 3.54397000e-03
-4.32148000 3.58082000e-03
-4.29148000 3.62276000e-03
-4.26148000 3.67880000e-03
-4.23148000 3.76703000e-03
-4.20148000 3.90852000e-03
-4.17148000 4.00674000e-03
-4.14148000 3.92296000e-03
-4.11148000 3.83750000e-03
-4.08148000 3.80380000e-03
-4.05148000 3.79803000e-03
-4.02148000 3.80540000e-03
-3.99148000 3.81940000e-03
-3.94310000 3.84913000e-03
-3.91310000 3.87011000e-03
-3.88310000 3.89235000e-03
-3.85310000 3.91555000e-03
-3.82310000 3.93955000e-03
-3.79310000 3.96423000e-03
-3.76310000 3.98955000e-03
-3.73310000 4.01545000e-03
-3.70310000 4.04192000e-03
-3.67310000 4.06897000e-03
-3.64310000 4.09658000e-03
-3.61310000 4.12478000e-03
-3.58310000 4.15357000e-03
-3.55310000 4.18297000e-03
-3.52310000 4.21302000e-03
-3.49310000 4.24375000e-03
-3.46310000 4.27518000e-03
-3.41473000 4.32745000e-03
-3.38473000 4.36093000e-03
-3.35473000 4.39529000e-03
-3.32473000 4.43060000e-03
-3.29473000 4.46693000e-03
-3.26473000 4.50436000e-03
-3.23473000 4.54300000e-03
-3.20473000 4.58297000e-03
-3.17473000 4.62441000e-03
-3.14473000 4.66750000e-03
-3.11473000 4.71244000e-03
-3.08473000 4.75952000e-03
-3.05473000 4.80909000e-03
-3.02473000 4.86161000e-03
-2.99473000 4.91773000e-03
-2.96473000 4.97839000e-03
-2.93473000 5.04501000e-03
-2.88635000 5.17144000e-03
-2.85635000 5.26945000e-03
-2.82635000 5.39530000e-03
-2.79635000 5.57423000e-03
-2.76635000 5.86230000e-03
-2.73635000 6.33903000e-03
-2.70635000 6.75410000e-03
-2.67635000 6.55663000e-03
-2.64635000 6.30221000e-03
-2.61635000 6.22747000e-03
-2.58635000 6.27488000e-03
-2.55635000 6.40910000e-03
-2.52635000 6.61905000e-03
-2.49635000 6.91848000e-03
-2.46635000 7.35087000e-03
-2.43635000 8.01161000e-03
-2.40635000 9.06637000e-03
-2.35798000 1.18089000e-02
-2.32798000 1.38114000e-02
-2.29798000 1.47984000e-02
-2.26798000 1.68580000e-02
-2.23798000 2.27880000e-02
-2.20798000 3.41382000e-02
-2.17798000 4.01732000e-02
-2.14798000 2.96891000e-02
-2.11798000 2.02355000e-02
-2.08798000 1.57062000e-02
-2.05798000 1.36653000e-02
-2.02798000 1.26890000e-02
-1.99798000 1.25657000e-02
-1.96798000 1.32346000e-02
-1.93798000 1.47538000e-02
-1.90798000 1.72300000e-02
-1.87798000 2.15579000e-02
-1.82960000 3.91623000e-02
-1.79960000 6.39970000e-02
-1.76960000 8.66490000e-02
-1.73960000 7.25588000e-02
-1.70960000 5.11854000e-02
-1.67960000 3.46147000e-02
-1.64960000 2.47218000e-02
-1.61960000 1.90157000e-02
-1.58960000 1.56132000e-02
-1.55960000 1.37241000e-02
-1.52960000 1.27841000e-02
-1.49960000 1.25702000e-02
-1.46960000 1.26477000e-02
-1.43960000 1.20060000e-02
-1.40960000 1.12814000e-02
-1.37960000 1.09535000e-02
-1.34960000 1.09215000e-02
-1.30123000 1.12589000e-02
-1.27123000 1.14878000e-02
-1.24123000 1.18296000e-02
-1.21123000 1.24477000e-02
-1.18123000 1.34895000e-02
-1.15123000 1.51694000e-02
-1.12123000 1.71137000e-02
-1.09123000 1.81589000e-02
-1.06123000 1.83574000e-02
-1.03123000 1.94022000e-02
-1.00123000 2.18126000e-02
-0.97123000 2.59614000e-02
-0.94123000 3.29304000e-02
-0.91123000 4.51637000e-02
-0.88123000 6.77145000e-02
-0.85123000 1.10588000e-01
-0.82123000 1.67041000e-01
-0.77285500 1.58192000e-01
-0.74285500 1.30564000e-01
-0.71285500 8.82964000e-02
-0.68285500 6.02100000e-02
-0.65285500 4.41841000e-02
-0.62285500 3.62128000e-02
-0.59285500 3.38399000e-02
-0.56285500 3.67085000e-02
-0.53285500 4.62481000e-02
-0.50285500 5.53285000e-02
-0.47285500 4.66197000e-02
-0.44285500 3.47193000e-02
-0.41285500 2.87643000e-02
-0.38285500 2.68205000e-02
-0.35285500 2.59083000e-02
-0.32285500 2.50028000e-02
-0.29285500 2.54222000e-02
-0.24448000 2.86220000e-02
-0.21448000 3.02448000e-02
-0.18448000 3.30860000e-02
-0.15448000 3.88416000e-02
-0.12448000 4.98996000e-02
-0.09447980 7.12839000e-02
-0.06447980 1.13511000e-01
-0.03447980 1.79859000e-01
-0.00447985 1.93361000e-01
0.02552020 1.34913000e-01
0.05552020 9.64566000e-02
0.08552020 8.81685000e-02
0.11552000 1.05728000e-01
0.14552000 1.36734000e-01
0.17552000 1.26742000e-01
0.20552000 8.56801000e-02
0.23552000 5.86781000e-02
0.28389500 3.96532000e-02
0.31389500 3.49177000e-02
0.34389500 3.27284000e-02
0.37389500 3.23045000e-02
0.40389500 3.36070000e-02
0.43389500 3.72483000e-02
0.46389500 4.31656000e-02
0.49389500 4.68337000e-02
0.52389500 4.92268000e-02
0.55389500 5.03723000e-02
0.58389500 5.02664000e-02
0.61389500 5.46095000e-02
0.64389500 6.52400000e-02
0.67389500 8.35871000e-02
0.70389500 1.05781000e-01
0.73389500 1.36489000e-01
0.76389500 1.96658000e-01
