# E(MeV)  S_NSDRNSDR(Total=K0+2*K1) for At227_DDPCX
-4.47148000 2.76830400e-01
-4.44148000 2.86213300e-01
-4.41148000 2.95806900e-01
-4.38148000 3.05630900e-01
-4.35148000 3.15707600e-01
-4.32148000 3.26063700e-01
-4.29148000 3.36730400e-01
-4.26148000 3.47751400e-01
-4.23148000 3.59173300e-01
-4.20148000 3.71065000e-01
-4.17148000 3.83514700e-01
-4.14148000 3.96657200e-01
-4.11148000 4.10698300e-01
-4.08148000 4.25971200e-01
-4.05148000 4.43068200e-01
-4.02148000 4.63127000e-01
-3.99148000 4.88514000e-01
-3.94310000 5.56502000e-01
-3.91310000 6.34382000e-01
-3.88310000 7.07504000e-01
-3.85310000 6.77305000e-01
-3.82310000 6.28802000e-01
-3.79310000 6.11340000e-01
-3.76310000 6.12679000e-01
-3.73310000 6.23369000e-01
-3.70310000 6.39264000e-01
-3.67310000 6.58595000e-01
-3.64310000 6.80616000e-01
-3.61310000 7.05060000e-01
-3.58310000 7.31943000e-01
-3.55310000 7.61498000e-01
-3.52310000 7.94204000e-01
-3.49310000 8.30925000e-01
-3.46310000 8.73264000e-01
-3.41473000 9.62911000e-01
-3.38473000 1.04640600e+00
-3.35473000 1.17014000e+00
-3.32473000 1.28575200e+00
-3.29473000 1.27827000e+00
-3.26473000 1.25932300e+00
-3.23473000 1.28367500e+00
-3.20473000 1.33683500e+00
-3.17473000 1.40891600e+00
-3.14473000 1.49668100e+00
-3.11473000 1.60012500e+00
-3.08473000 1.72105000e+00
-3.05473000 1.86265400e+00
-3.02473000 2.02960100e+00
-2.99473000 2.22840700e+00
-2.96473000 2.46817400e+00
-2.93473000 2.76173800e+00
-2.88635000 3.39887000e+00
-2.85635000 3.94547000e+00
-2.82635000 4.67148000e+00
-2.79635000 5.66845000e+00
-2.76635000 7.09424000e+00
-2.73635000 9.23791000e+00
-2.70635000 1.26682900e+01
-2.67635000 1.85951300e+01
-2.64635000 2.97412000e+01
-2.61635000 5.15226000e+01
-2.58635000 8.41629000e+01
-2.55635000 9.56793000e+01
-2.52635000 6.75173000e+01
-2.49635000 3.89505600e+01
-2.46635000 2.37913000e+01
-2.43635000 1.61471000e+01
-2.40635000 1.20543100e+01
-2.35798000 8.87039000e+00
-2.32798000 7.99568000e+00
-2.29798000 7.64526000e+00
-2.26798000 7.73661000e+00
-2.23798000 8.29451000e+00
-2.20798000 9.47184000e+00
-2.17798000 1.16500200e+01
-2.14798000 1.57124400e+01
-2.11798000 2.35861600e+01
-2.08798000 3.70547400e+01
-2.05798000 4.52024000e+01
-2.02798000 4.06831800e+01
-1.99798000 4.34310700e+01
-1.96798000 5.80868000e+01
-1.93798000 6.95373000e+01
-1.90798000 5.99522000e+01
-1.87798000 3.93859800e+01
-1.82960000 2.04686000e+01
-1.79960000 1.62173100e+01
-1.76960000 1.47410600e+01
-1.73960000 1.54376500e+01
-1.70960000 1.81907900e+01
-1.67960000 1.95560600e+01
-1.64960000 1.76073100e+01
-1.61960000 1.71055700e+01
-1.58960000 1.91223200e+01
-1.55960000 2.40682700e+01
-1.52960000 3.33579800e+01
-1.49960000 5.01441300e+01
-1.46960000 6.74305600e+01
-1.43960000 6.44620300e+01
-1.40960000 6.35300700e+01
-1.37960000 8.02150800e+01
-1.34960000 1.18028750e+02
-1.30123000 2.21146250e+02
-1.27123000 1.95439180e+02
-1.24123000 1.45377660e+02
-1.21123000 9.96416200e+01
-1.18123000 6.23290800e+01
-1.15123000 4.18157000e+01
-1.12123000 3.16130300e+01
-1.09123000 2.70423700e+01
-1.06123000 2.41312300e+01
-1.03123000 2.14210700e+01
-1.00123000 2.11472400e+01
-0.97123000 2.22472400e+01
-0.94123000 2.09443000e+01
-0.91123000 1.99606900e+01
-0.88123000 2.13377900e+01
-0.85123000 2.50438500e+01
-0.82123000 3.29196100e+01
-0.77285500 6.67990300e+01
-0.74285500 1.06110340e+02
-0.71285500 1.11930270e+02
-0.68285500 7.73202000e+01
-0.65285500 5.67049000e+01
-0.62285500 5.47792000e+01
-0.59285500 6.41318000e+01
-0.56285500 6.78843000e+01
-0.53285500 6.88711000e+01
-0.50285500 7.53959000e+01
-0.47285500 9.36670000e+01
-0.44285500 1.10760100e+02
-0.41285500 8.99756200e+01
-0.38285500 5.98153200e+01
-0.35285500 4.54817000e+01
-0.32285500 4.33611000e+01
-0.29285500 5.21486000e+01
-0.24448000 9.05750000e+01
-0.21448000 1.04848600e+02
-0.18448000 1.10515600e+02
-0.15448000 9.29144000e+01
-0.12448000 6.20406000e+01
-0.09447980 4.43741000e+01
-0.06447980 3.89133000e+01
-0.03447980 4.06823100e+01
-0.00447985 4.87587300e+01
0.02552020 5.96488000e+01
0.05552020 5.88606100e+01
0.08552020 4.51877400e+01
0.11552000 3.51415500e+01
0.14552000 2.85502400e+01
0.17552000 2.52850300e+01
0.20552000 2.29980500e+01
0.23552000 2.26065900e+01
0.28389500 2.79483100e+01
0.31389500 3.65891200e+01
0.34389500 4.97173300e+01
0.37389500 6.10451100e+01
0.40389500 8.02168000e+01
0.43389500 1.25180200e+02
0.46389500 1.82083500e+02
0.49389500 1.70377900e+02
0.52389500 1.40109500e+02
0.55389500 1.56720500e+02
0.58389500 2.02499000e+02
0.61389500 1.80517900e+02
0.64389500 1.15935500e+02
0.67389500 7.87390000e+01
0.70389500 6.47109400e+01
0.73389500 5.42442500e+01
0.76389500 4.11497300e+01
