# E(MeV)  S_GAMTGAMT(Total=K0+2*K1) for At220_DDPCX
-3.86520000 7.37886000e-03
-3.83520000 7.86807000e-03
-3.80520000 8.14018000e-03
-3.77520000 8.31579000e-03
-3.74520000 8.46196000e-03
-3.71520000 8.58116000e-03
-3.68520000 8.67749000e-03
-3.65520000 8.76000000e-03
-3.62520000 8.83412000e-03
-3.59520000 8.90292000e-03
-3.56520000 8.96813000e-03
-3.53520000 9.03087000e-03
-3.50520000 9.09182000e-03
-3.47520000 9.15143000e-03
-3.44520000 9.20994000e-03
-3.39745000 9.30096000e-03
-3.36745000 9.35644000e-03
-3.33745000 9.40967000e-03
-3.30745000 9.45870000e-03
-3.27745000 9.49879000e-03
-3.24745000 9.52027000e-03
-3.21745000 9.52373000e-03
-3.18745000 9.58343000e-03
-3.15745000 9.69743000e-03
-3.12745000 9.79141000e-03
-3.09745000 9.86327000e-03
-3.06745000 9.91898000e-03
-3.03745000 9.97075000e-03
-3.00745000 1.00485900e-02
-2.97745000 1.01332600e-02
-2.92970000 1.02524500e-02
-2.89970000 1.03227200e-02
-2.86970000 1.03919800e-02
-2.83970000 1.04610500e-02
-2.80970000 1.05303900e-02
-2.77970000 1.06002000e-02
-2.74970000 1.06706400e-02
-2.71970000 1.07417900e-02
-2.68970000 1.08137500e-02
-2.65970000 1.08865600e-02
-2.62970000 1.09602600e-02
-2.59970000 1.10349200e-02
-2.56970000 1.11105900e-02
-2.53970000 1.11872700e-02
-2.50970000 1.12650400e-02
-2.46196000 1.13911600e-02
-2.43196000 1.14719500e-02
-2.40196000 1.15539900e-02
-2.37196000 1.16373400e-02
-2.34196000 1.17220400e-02
-2.31196000 1.18082000e-02
-2.28196000 1.18958500e-02
-2.25196000 1.19851000e-02
-2.22196000 1.20760400e-02
-2.19196000 1.21687900e-02
-2.16196000 1.22634700e-02
-2.13196000 1.23602500e-02
-2.10196000 1.24593500e-02
-2.07196000 1.25609800e-02
-2.04196000 1.26655500e-02
-1.99421000 1.28391900e-02
-1.96421000 1.29539700e-02
-1.93421000 1.30745700e-02
-1.90421000 1.32030200e-02
-1.87421000 1.33428200e-02
-1.84421000 1.35004100e-02
-1.81421000 1.36888800e-02
-1.78421000 1.39367500e-02
-1.75421000 1.43060000e-02
-1.72421000 1.48604000e-02
-1.69421000 1.52472100e-02
-1.66421000 1.51118300e-02
-1.63421000 1.50880900e-02
-1.60421000 1.53894400e-02
-1.57421000 1.61100300e-02
-1.52646000 1.74028300e-02
-1.49646000 1.67131500e-02
-1.46646000 1.60549800e-02
-1.43646000 1.57945400e-02
-1.40646000 1.57499600e-02
-1.37646000 1.58118000e-02
-1.34646000 1.59328200e-02
-1.31646000 1.60927800e-02
-1.28646000 1.62833600e-02
-1.25646000 1.65023400e-02
-1.22646000 1.67514600e-02
-1.19646000 1.70359100e-02
-1.16646000 1.73652200e-02
-1.13646000 1.77553800e-02
-1.10646000 1.82338600e-02
-1.05872000 1.93167100e-02
-1.02872000 2.03937700e-02
-0.99871700 2.20927300e-02
-0.96871700 2.44650900e-02
-0.93871700 2.61590000e-02
-0.90871700 2.80764700e-02
-0.87871700 3.29097900e-02
-0.84871700 4.33834500e-02
-0.81871700 6.14983700e-02
-0.78871700 6.89768300e-02
-0.75871700 5.26963700e-02
-0.72871700 3.96331000e-02
-0.69871700 3.28033400e-02
-0.66871700 2.84566400e-02
-0.63871700 2.60816300e-02
-0.59097000 2.47169000e-02
-0.56097000 2.46349000e-02
-0.53097000 2.44286400e-02
-0.50097000 2.42084600e-02
-0.47097000 2.42603400e-02
-0.44097000 2.45290800e-02
-0.41097000 2.49606800e-02
-0.38097000 2.55402200e-02
-0.35097000 2.62779400e-02
-0.32097000 2.72059200e-02
-0.29097000 2.83814800e-02
-0.26097000 2.99010800e-02
-0.23097000 3.19260400e-02
-0.20097000 3.47371200e-02
-0.17097000 3.88500000e-02
-0.12322400 5.09598000e-02
-0.09322350 6.64973800e-02
-0.06322350 9.67441400e-02
-0.03322350 1.53637280e-01
-0.00322353 2.04846400e-01
0.02677650 1.62503720e-01
0.05677650 1.03938900e-01
0.08677650 7.24748000e-02
0.11677600 5.70564400e-02
0.14677600 4.91811600e-02
0.17677600 4.50906000e-02
0.20677600 4.31715000e-02
0.23677600 4.28252000e-02
0.26677600 4.40725000e-02
0.29677600 4.69767000e-02
0.34452300 4.84040000e-02
0.37452300 4.78379000e-02
0.40452300 4.95874000e-02
0.43452300 5.41675000e-02
0.46452300 6.32751000e-02
0.49452300 7.58981000e-02
0.52452300 7.66308000e-02
0.55452300 6.96805000e-02
0.58452300 6.86648000e-02
0.61452300 7.36871000e-02
0.64452300 8.39941000e-02
0.67452300 1.01126600e-01
0.70452300 1.25162100e-01
0.73452300 1.46018000e-01
0.76452300 1.35126400e-01
