# E(MeV)  S_GAMTGAMT(K=1) for At220_DDPCX
-3.86520000 2.19782000e-03
-3.83520000 2.43021000e-03
-3.80520000 2.55452000e-03
-3.77520000 2.63092000e-03
-3.74520000 2.69285000e-03
-3.71520000 2.74149000e-03
-3.68520000 2.77883000e-03
-3.65520000 2.80937000e-03
-3.62520000 2.83580000e-03
-3.59520000 2.85963000e-03
-3.56520000 2.88172000e-03
-3.53520000 2.90263000e-03
-3.50520000 2.92270000e-03
-3.47520000 2.94218000e-03
-3.44520000 2.96124000e-03
-3.39745000 2.99102000e-03
-3.36745000 3.00950000e-03
-3.33745000 3.02786000e-03
-3.30745000 3.04616000e-03
-3.27745000 3.06440000e-03
-3.24745000 3.08258000e-03
-3.21745000 3.10068000e-03
-3.18745000 3.11861000e-03
-3.15745000 3.13616000e-03
-3.12745000 3.15286000e-03
-3.09745000 3.16762000e-03
-3.06745000 3.17861000e-03
-3.03745000 3.18960000e-03
-3.00745000 3.21456000e-03
-2.97745000 3.24338000e-03
-2.92970000 3.28183000e-03
-2.89970000 3.30372000e-03
-2.86970000 3.32506000e-03
-2.83970000 3.34622000e-03
-2.80970000 3.36740000e-03
-2.77970000 3.38868000e-03
-2.74970000 3.41013000e-03
-2.71970000 3.43177000e-03
-2.68970000 3.45364000e-03
-2.65970000 3.47575000e-03
-2.62970000 3.49811000e-03
-2.59970000 3.52075000e-03
-2.56970000 3.54368000e-03
-2.53970000 3.56690000e-03
-2.50970000 3.59043000e-03
-2.46196000 3.62856000e-03
-2.43196000 3.65296000e-03
-2.40196000 3.67772000e-03
-2.37196000 3.70286000e-03
-2.34196000 3.72839000e-03
-2.31196000 3.75434000e-03
-2.28196000 3.78072000e-03
-2.25196000 3.80757000e-03
-2.22196000 3.83491000e-03
-2.19196000 3.86278000e-03
-2.16196000 3.89122000e-03
-2.13196000 3.92028000e-03
-2.10196000 3.95004000e-03
-2.07196000 3.98057000e-03
-2.04196000 4.01201000e-03
-1.99421000 4.06436000e-03
-1.96421000 4.09914000e-03
-1.93421000 4.13595000e-03
-1.90421000 4.17563000e-03
-1.87421000 4.21969000e-03
-1.84421000 4.27100000e-03
-1.81421000 4.33557000e-03
-1.78421000 4.42684000e-03
-1.75421000 4.57443000e-03
-1.72421000 4.80787000e-03
-1.69421000 4.94643000e-03
-1.66421000 4.80414000e-03
-1.63421000 4.67926000e-03
-1.60421000 4.63603000e-03
-1.57421000 4.63609000e-03
-1.52646000 4.67563000e-03
-1.49646000 4.71308000e-03
-1.46646000 4.75660000e-03
-1.43646000 4.80505000e-03
-1.40646000 4.85806000e-03
-1.37646000 4.91570000e-03
-1.34646000 4.97842000e-03
-1.31646000 5.04698000e-03
-1.28646000 5.12252000e-03
-1.25646000 5.20669000e-03
-1.22646000 5.30188000e-03
-1.19646000 5.41156000e-03
-1.16646000 5.54099000e-03
-1.13646000 5.69846000e-03
-1.10646000 5.89785000e-03
-1.05872000 6.37134000e-03
-1.02872000 6.86430000e-03
-0.99871700 7.66588000e-03
-0.96871700 8.80167000e-03
-0.93871700 9.59556000e-03
-0.90871700 1.04983000e-02
-0.87871700 1.28557000e-02
-0.84871700 1.80296000e-02
-0.81871700 2.70199000e-02
-0.78871700 3.06870000e-02
-0.75871700 2.24686000e-02
-0.72871700 1.58511000e-02
-0.69871700 1.23399000e-02
-0.66871700 1.00546000e-02
-0.63871700 8.72878000e-03
-0.59097000 7.71115000e-03
-0.56097000 7.39711000e-03
-0.53097000 7.20942000e-03
-0.50097000 7.10043000e-03
-0.47097000 7.04347000e-03
-0.44097000 7.02274000e-03
-0.41097000 7.02844000e-03
-0.38097000 7.05426000e-03
-0.35097000 7.09602000e-03
-0.32097000 7.15096000e-03
-0.29097000 7.21719000e-03
-0.26097000 7.29349000e-03
-0.23097000 7.37912000e-03
-0.20097000 7.47371000e-03
-0.17097000 7.57730000e-03
-0.12322400 7.76195000e-03
-0.09322350 7.89249000e-03
-0.06322350 8.03797000e-03
-0.03322350 8.20564000e-03
-0.00322353 8.40720000e-03
0.02677650 8.62136000e-03
0.05677650 8.76850000e-03
0.08677650 8.91100000e-03
0.11677600 9.09677000e-03
0.14677600 9.32118000e-03
0.17677600 9.58310000e-03
0.20677600 9.89005000e-03
0.23677600 1.02597000e-02
0.26677600 1.07168000e-02
0.29677600 1.12420000e-02
0.34452300 1.22693000e-02
0.37452300 1.32243000e-02
0.40452300 1.47100000e-02
0.43452300 1.71869000e-02
0.46452300 2.16921000e-02
0.49452300 2.78015000e-02
0.52452300 2.78426000e-02
0.55452300 2.39238000e-02
0.58452300 2.28422000e-02
0.61452300 2.46216000e-02
0.64452300 2.88362000e-02
0.67452300 3.61805000e-02
0.70452300 4.66056000e-02
0.73452300 5.48784000e-02
0.76452300 4.62777000e-02
