# E(MeV)  S_GAMTGAMT(Total=K0+2*K1) for At253_DDPCX
-11.46900000 8.97944000e-03
-11.43900000 9.01541000e-03
-11.40900000 9.05156000e-03
-11.37900000 9.08788000e-03
-11.34900000 9.12438000e-03
-11.31900000 9.16109000e-03
-11.28900000 9.19797000e-03
-11.25900000 9.23507000e-03
-11.22900000 9.27236000e-03
-11.19900000 9.30987000e-03
-11.16900000 9.34760000e-03
-11.13900000 9.38554000e-03
-11.10900000 9.42374000e-03
-11.07900000 9.46214000e-03
-11.04900000 9.50081000e-03
-11.01900000 9.53975000e-03
-10.98900000 9.57893000e-03
-10.95900000 9.61839000e-03
-10.92900000 9.65816000e-03
-10.89900000 9.69821000e-03
-10.86900000 9.73856000e-03
-10.83900000 9.77927000e-03
-10.80900000 9.82031000e-03
-10.77900000 9.86175000e-03
-10.74900000 9.90358000e-03
-10.71900000 9.94583000e-03
-10.68900000 9.98859000e-03
-10.65900000 1.00318600e-02
-10.62900000 1.00757500e-02
-10.59900000 1.01203100e-02
-10.56900000 1.01656800e-02
-10.53900000 1.02120000e-02
-10.50900000 1.02595000e-02
-10.47900000 1.03084700e-02
-10.44900000 1.03593600e-02
-10.41900000 1.04128400e-02
-10.38900000 1.04700000e-02
-10.35900000 1.05325500e-02
-10.32900000 1.06035600e-02
-10.29900000 1.06886100e-02
-10.24090000 1.09461400e-02
-10.21090000 1.12003700e-02
-10.18090000 1.16604100e-02
-10.15090000 1.23310900e-02
-10.12090000 1.24000300e-02
-10.09090000 1.18325400e-02
-10.06090000 1.14655400e-02
-10.03090000 1.13111000e-02
-10.00090000 1.12626500e-02
-9.97086000 1.12707700e-02
-9.94086000 1.13210100e-02
-9.91086000 1.14219300e-02
-9.88086000 1.15820900e-02
-9.85086000 1.16677500e-02
-9.82086000 1.15959800e-02
-9.79086000 1.15503800e-02
-9.76086000 1.15553100e-02
-9.73086000 1.15877300e-02
-9.70086000 1.16361300e-02
-9.67086000 1.16951600e-02
-9.64086000 1.17530800e-02
-9.61086000 1.18083000e-02
-9.58086000 1.18705700e-02
-9.55086000 1.19404500e-02
-9.52086000 1.20175700e-02
-9.49086000 1.21027600e-02
-9.46086000 1.21980000e-02
-9.43086000 1.23067900e-02
-9.40086000 1.24348500e-02
-9.37086000 1.25921700e-02
-9.34086000 1.27969700e-02
-9.31086000 1.30852300e-02
-9.28086000 1.35256000e-02
-9.25086000 1.41729500e-02
-9.22086000 1.49374900e-02
-9.19086000 1.61844600e-02
-9.16086000 1.80178000e-02
-9.13086000 1.95871500e-02
-9.10086000 2.21909000e-02
-9.07086000 2.33700000e-02
-9.01274000 1.78123100e-02
-8.98274000 1.62442600e-02
-8.95274000 1.56028800e-02
-8.92274000 1.49415000e-02
-8.89274000 1.43877400e-02
-8.86274000 1.40929600e-02
-8.83274000 1.39559900e-02
-8.80274000 1.39083800e-02
-8.77274000 1.39209700e-02
-8.74274000 1.39883500e-02
-8.71274000 1.41263100e-02
-8.68274000 1.43530300e-02
-8.65274000 1.45826000e-02
-8.62274000 1.47265700e-02
-8.59274000 1.47691400e-02
-8.56274000 1.47775700e-02
-8.53274000 1.47179400e-02
-8.50274000 1.47446100e-02
-8.47274000 1.48813400e-02
-8.44274000 1.51305100e-02
-8.41274000 1.55400400e-02
-8.38274000 1.62436700e-02
-8.35274000 1.74015500e-02
-8.32274000 1.82721400e-02
-8.29274000 1.80002400e-02
-8.26274000 1.76964100e-02
-8.23274000 1.81295300e-02
-8.20274000 1.93240100e-02
-8.17274000 2.16339100e-02
-8.14274000 2.61900200e-02
-8.11274000 3.04218000e-02
-8.08274000 2.72811600e-02
-8.05274000 2.27606800e-02
-8.02274000 2.07673700e-02
-7.99274000 2.05508400e-02
-7.96274000 2.04457400e-02
-7.93274000 1.96993900e-02
-7.90274000 1.94639700e-02
-7.87274000 2.00233200e-02
-7.84274000 2.10768600e-02
-7.78461000 1.97533800e-02
-7.75461000 1.96724000e-02
-7.72461000 2.04425000e-02
-7.69461000 2.04356100e-02
-7.66461000 1.94272400e-02
-7.63461000 1.88213000e-02
-7.60461000 1.86702800e-02
-7.57461000 1.88043900e-02
-7.54461000 1.91760500e-02
-7.51461000 1.99538000e-02
-7.48461000 2.14047800e-02
-7.45461000 2.31792700e-02
-7.42461000 2.35857700e-02
-7.39461000 2.37284400e-02
-7.36461000 2.53897400e-02
-7.33461000 2.94554000e-02
-7.30461000 3.41397200e-02
-7.27461000 3.44281200e-02
-7.24461000 3.10809200e-02
-7.21461000 2.85768200e-02
-7.18461000 2.72285300e-02
-7.15461000 2.64206200e-02
-7.12461000 2.60808100e-02
-7.09461000 2.71574200e-02
-7.06461000 2.86206400e-02
-7.03461000 2.90862400e-02
-7.00461000 2.97794000e-02
-6.97461000 3.29371600e-02
-6.94461000 3.96841200e-02
-6.91461000 4.57232000e-02
-6.88461000 4.69191000e-02
-6.85461000 4.36524000e-02
-6.82461000 3.70979000e-02
-6.79461000 3.39155000e-02
-6.76461000 3.31314000e-02
-6.73461000 3.37185000e-02
-6.70461000 3.62973000e-02
-6.67461000 4.05055000e-02
-6.64461000 4.84503000e-02
-6.61461000 6.40242000e-02
-6.55648000 9.01258000e-02
-6.52648000 9.15380000e-02
-6.49648000 8.10137000e-02
-6.46648000 6.42668000e-02
-6.43648000 5.62108000e-02
-6.40648000 5.54596000e-02
-6.37648000 6.12222000e-02
-6.34648000 7.34233000e-02
-6.31648000 7.85480000e-02
-6.28648000 6.44286000e-02
-6.25648000 5.17067000e-02
-6.22648000 4.58646000e-02
-6.19648000 4.52050000e-02
-6.16648000 4.86011000e-02
-6.13648000 5.50825000e-02
-6.10648000 6.71448000e-02
-6.07648000 9.03026000e-02
-6.04648000 1.27322700e-01
-6.01648000 1.45381400e-01
-5.98648000 1.16711200e-01
-5.95648000 8.62392000e-02
-5.92648000 7.04061000e-02
-5.89648000 5.62201000e-02
-5.86648000 4.66615000e-02
-5.83648000 4.17747000e-02
-5.80648000 3.90314000e-02
-5.77648000 3.77596000e-02
-5.74648000 3.75241000e-02
-5.71648000 3.84185000e-02
-5.68648000 3.90818000e-02
-5.65648000 3.74535000e-02
-5.62648000 3.68887000e-02
-5.59648000 3.76973000e-02
-5.56648000 3.92662000e-02
-5.53648000 4.15803000e-02
-5.50648000 4.16205000e-02
-5.47648000 4.06119000e-02
-5.44648000 3.97958000e-02
-5.41648000 3.87062000e-02
-5.38648000 3.76730000e-02
-5.32836000 3.88964000e-02
-5.29836000 4.20784000e-02
-5.26836000 4.82637000e-02
-5.23836000 5.89442000e-02
-5.20836000 7.06669000e-02
-5.17836000 7.01337000e-02
-5.14836000 6.08326000e-02
-5.11836000 5.85120000e-02
-5.08836000 6.12341000e-02
-5.05836000 5.94728000e-02
-5.02836000 5.75452000e-02
-4.99836000 5.97914000e-02
-4.96836000 5.76092000e-02
-4.93836000 5.21816000e-02
-4.90836000 4.84089000e-02
-4.87836000 4.70854000e-02
-4.84836000 4.78422000e-02
-4.81836000 5.05820000e-02
-4.78836000 5.61327000e-02
-4.75836000 6.58855000e-02
-4.72836000 7.53012000e-02
-4.69836000 7.54642000e-02
-4.66836000 7.82088000e-02
-4.63836000 8.45478000e-02
-4.60836000 9.39970000e-02
-4.57836000 1.06685900e-01
-4.54836000 1.02826100e-01
-4.51836000 9.84250000e-02
-4.48836000 1.07330700e-01
-4.45836000 1.19760700e-01
-4.42836000 1.06358200e-01
-4.39836000 8.77792000e-02
-4.36836000 7.98224000e-02
-4.33836000 7.96491000e-02
-4.30836000 8.48228000e-02
-4.27836000 9.54778000e-02
-4.24836000 1.10629900e-01
-4.21836000 1.18634900e-01
-4.18836000 1.26647900e-01
-4.15836000 1.33804600e-01
-4.10023000 1.36370600e-01
-4.07023000 1.60373000e-01
-4.04023000 2.10669200e-01
-4.01023000 2.92415600e-01
-3.98023000 3.98253600e-01
-3.95023000 5.06055800e-01
-3.92023000 6.43055400e-01
-3.89023000 5.87969800e-01
-3.86023000 3.87710800e-01
-3.83023000 2.68075800e-01
-3.80023000 2.08423600e-01
-3.77023000 1.69667000e-01
-3.74023000 1.45115000e-01
-3.71023000 1.31732300e-01
-3.68023000 1.25872500e-01
-3.65023000 1.25882900e-01
-3.62023000 1.32036100e-01
-3.59023000 1.45370200e-01
-3.56023000 1.62975900e-01
-3.53023000 1.74134200e-01
-3.50023000 1.87364400e-01
-3.47023000 2.17891200e-01
-3.44023000 2.66962400e-01
-3.41023000 3.39098800e-01
-3.38023000 4.67264600e-01
-3.35023000 7.15597000e-01
-3.32023000 1.08704320e+00
-3.29023000 1.19097860e+00
-3.26023000 9.42843000e-01
-3.23023000 6.22341600e-01
-3.20023000 4.18740400e-01
-3.17023000 3.17743000e-01
-3.14023000 2.71168800e-01
-3.11023000 2.55361200e-01
-3.08023000 2.63097800e-01
-3.05023000 2.99341000e-01
-3.02023000 3.80999000e-01
-2.99023000 4.90602000e-01
-2.96023000 4.65408000e-01
-2.93023000 3.61371000e-01
-2.87211000 2.89267200e-01
-2.84211000 2.98496200e-01
-2.81211000 3.30333200e-01
-2.78211000 3.84211600e-01
-2.75211000 4.64408000e-01
-2.72211000 6.03611800e-01
-2.69211000 8.81090000e-01
-2.66211000 1.40419300e+00
-2.63211000 1.90728400e+00
-2.60211000 1.56827600e+00
-2.57211000 1.03413800e+00
-2.54211000 7.59759000e-01
-2.51211000 6.40137000e-01
-2.48211000 6.01877000e-01
-2.45211000 6.24129000e-01
-2.42211000 6.60897000e-01
-2.39211000 7.11917000e-01
-2.36211000 8.29926000e-01
-2.33211000 1.04342700e+00
-2.30211000 1.26325000e+00
-2.27211000 1.41419800e+00
-2.24211000 1.76030200e+00
-2.21211000 2.36928500e+00
-2.18211000 3.25466200e+00
-2.15211000 4.16861000e+00
-2.12211000 5.05760000e+00
-2.09211000 5.99006500e+00
-2.06211000 4.96313000e+00
-2.03211000 3.62206000e+00
-2.00211000 3.20771300e+00
-1.97211000 3.57475100e+00
-1.94211000 4.68815000e+00
-1.91211000 6.17301000e+00
-1.88211000 6.17405000e+00
-1.85211000 4.75790400e+00
-1.82211000 3.80406500e+00
-1.79211000 3.74915400e+00
-1.76211000 4.31719000e+00
-1.73211000 4.99856000e+00
-1.70211000 6.09469000e+00
-1.64398000 1.27131300e+01
-1.61398000 1.82217600e+01
-1.58398000 2.00034100e+01
-1.55398000 2.43028800e+01
-1.52398000 3.22637000e+01
-1.49398000 2.77167500e+01
-1.46398000 1.64696600e+01
-1.43398000 9.66730500e+00
-1.40398000 6.11928900e+00
-1.37398000 4.17882100e+00
-1.34398000 3.02553300e+00
-1.31398000 2.29301000e+00
-1.28398000 1.81064800e+00
-1.25398000 1.48589700e+00
-1.22398000 1.26001600e+00
-1.19398000 1.07476400e+00
-1.16398000 9.22562000e-01
-1.13398000 8.00021000e-01
-1.10398000 7.00736000e-01
-1.07398000 6.27029000e-01
-1.04398000 5.74010000e-01
-1.01398000 5.36142000e-01
-0.98398100 4.96899000e-01
-0.95398100 4.51433000e-01
-0.92398100 4.10123300e-01
-0.89398100 3.78286000e-01
-0.86398100 3.47134800e-01
-0.83398100 3.22072000e-01
-0.80398100 3.01191200e-01
-0.77398100 2.81891000e-01
-0.74398100 2.70609200e-01
-0.71398100 2.67385200e-01
-0.68398100 2.56814500e-01
-0.65398100 2.37067700e-01
-0.62398100 2.18180400e-01
-0.59398100 2.02489000e-01
-0.56398100 1.91340600e-01
-0.53398100 1.82787000e-01
-0.50398100 1.76254200e-01
-0.47398100 1.72294600e-01
-0.41585600 1.64275600e-01
-0.38585600 1.56672800e-01
-0.35585600 1.51553500e-01
-0.32585600 1.49840400e-01
-0.29585600 1.49987300e-01
-0.26585600 1.46747800e-01
-0.23585600 1.41642300e-01
-0.20585600 1.38098000e-01
-0.17585600 1.35345800e-01
-0.14585600 1.33303200e-01
-0.11585600 1.33112000e-01
-0.08585570 1.32018100e-01
-0.05585570 1.29924400e-01
-0.02585570 1.31202000e-01
0.00414429 1.34168300e-01
0.03414430 1.33305600e-01
0.06414430 1.31031200e-01
0.09414430 1.31385300e-01
0.12414400 1.33943100e-01
0.15414400 1.37057500e-01
0.18414400 1.45331300e-01
0.21414400 1.54362600e-01
0.24414400 1.51077200e-01
0.27414400 1.45514200e-01
0.30414400 1.47733800e-01
0.33414400 1.57065100e-01
0.36414400 1.67445700e-01
0.39414400 1.82626300e-01
0.42414400 1.95371200e-01
0.45414400 2.09521400e-01
0.48414400 2.31797500e-01
0.51414400 2.42090800e-01
0.54414400 2.23683000e-01
0.57414400 2.02364700e-01
0.60414400 1.82693300e-01
0.63414400 1.72157100e-01
0.66414400 1.67291600e-01
0.69414400 1.63170100e-01
0.72414400 1.52532800e-01
0.75414400 1.42272200e-01
