# E(MeV)  S_GAMTGAMT(K=0) for Au213_DDPCX
-7.28688000 2.89428000e-03
-7.25688000 2.85791000e-03
-7.22688000 2.84432000e-03
-7.19688000 2.84237000e-03
-7.16688000 2.84599000e-03
-7.13688000 2.85203000e-03
-7.10688000 2.86050000e-03
-7.07688000 2.87083000e-03
-7.04688000 2.88239000e-03
-7.01688000 2.89482000e-03
-6.98688000 2.90788000e-03
-6.95688000 2.92144000e-03
-6.92688000 2.93541000e-03
-6.89688000 2.94972000e-03
-6.86688000 2.96434000e-03
-6.83688000 2.97922000e-03
-6.80688000 2.99435000e-03
-6.77688000 3.00972000e-03
-6.74688000 3.02531000e-03
-6.71688000 3.04111000e-03
-6.68688000 3.05711000e-03
-6.65688000 3.07332000e-03
-6.62688000 3.08974000e-03
-6.59688000 3.10636000e-03
-6.56688000 3.12318000e-03
-6.53688000 3.14021000e-03
-6.47696000 3.17485000e-03
-6.44696000 3.19252000e-03
-6.41696000 3.21041000e-03
-6.38696000 3.22853000e-03
-6.35696000 3.24688000e-03
-6.32696000 3.26548000e-03
-6.29696000 3.28434000e-03
-6.26696000 3.30346000e-03
-6.23696000 3.32285000e-03
-6.20696000 3.34254000e-03
-6.17696000 3.36254000e-03
-6.14696000 3.38287000e-03
-6.11696000 3.40356000e-03
-6.08696000 3.42464000e-03
-6.05696000 3.44614000e-03
-6.02696000 3.46812000e-03
-5.99696000 3.49063000e-03
-5.96696000 3.51378000e-03
-5.93696000 3.53767000e-03
-5.90696000 3.56251000e-03
-5.87696000 3.58857000e-03
-5.84696000 3.61635000e-03
-5.81696000 3.64673000e-03
-5.78696000 3.68150000e-03
-5.75696000 3.72454000e-03
-5.72696000 3.78430000e-03
-5.66705000 3.92973000e-03
-5.63705000 3.91441000e-03
-5.60705000 3.90671000e-03
-5.57705000 3.92600000e-03
-5.54705000 3.96341000e-03
-5.51705000 4.01567000e-03
-5.48705000 4.08490000e-03
-5.45705000 4.17842000e-03
-5.42705000 4.31156000e-03
-5.39705000 4.51607000e-03
-5.36705000 4.86142000e-03
-5.33705000 5.50638000e-03
-5.30705000 6.75243000e-03
-5.27705000 8.35593000e-03
-5.24705000 7.94673000e-03
-5.21705000 6.37140000e-03
-5.18705000 5.44745000e-03
-5.15705000 5.02765000e-03
-5.12705000 4.80467000e-03
-5.09705000 4.65618000e-03
-5.06705000 4.57953000e-03
-5.03705000 4.53615000e-03
-5.00705000 4.51247000e-03
-4.97705000 4.50940000e-03
-4.94705000 4.52118000e-03
-4.91705000 4.54460000e-03
-4.85713000 4.61205000e-03
-4.82713000 4.64092000e-03
-4.79713000 4.67694000e-03
-4.76713000 4.72247000e-03
-4.73713000 4.77753000e-03
-4.70713000 4.84401000e-03
-4.67713000 4.92621000e-03
-4.64713000 5.03217000e-03
-4.61713000 5.17709000e-03
-4.58713000 5.39129000e-03
-4.55713000 5.73976000e-03
-4.52713000 6.36761000e-03
-4.49713000 7.54714000e-03
-4.46713000 9.29313000e-03
-4.43713000 9.55636000e-03
-4.40713000 7.89446000e-03
-4.37713000 6.72831000e-03
-4.34713000 6.18844000e-03
-4.31713000 5.97087000e-03
-4.28713000 5.93449000e-03
-4.25713000 6.04007000e-03
-4.22713000 6.31763000e-03
-4.19713000 6.92271000e-03
-4.16713000 7.98443000e-03
-4.13713000 8.41776000e-03
-4.10713000 7.44341000e-03
-4.04722000 6.25672000e-03
-4.01722000 6.08178000e-03
-3.98722000 6.00758000e-03
-3.95722000 5.98515000e-03
-3.92722000 5.99217000e-03
-3.89722000 6.01781000e-03
-3.86722000 6.05669000e-03
-3.83722000 6.10535000e-03
-3.80722000 6.16019000e-03
-3.77722000 6.22321000e-03
-3.74722000 6.29761000e-03
-3.71722000 6.38173000e-03
-3.68722000 6.47610000e-03
-3.65722000 6.60421000e-03
-3.62722000 6.79628000e-03
-3.59722000 7.01041000e-03
-3.56722000 7.03024000e-03
-3.53722000 6.98081000e-03
-3.50722000 7.00117000e-03
-3.47722000 7.07401000e-03
-3.44722000 7.17257000e-03
-3.41722000 7.27730000e-03
-3.38722000 7.40058000e-03
-3.35722000 7.55072000e-03
-3.32722000 7.73421000e-03
-3.29722000 7.96692000e-03
-3.23730000 8.65512000e-03
-3.20730000 8.98135000e-03
-3.17730000 9.38871000e-03
-3.14730000 1.00735000e-02
-3.11730000 1.12333000e-02
-3.08730000 1.32942000e-02
-3.05730000 1.70156000e-02
-3.02730000 2.15523000e-02
-2.99730000 2.19086000e-02
-2.96730000 2.22666000e-02
-2.93730000 2.77513000e-02
-2.90730000 3.44961000e-02
-2.87730000 2.91223000e-02
-2.84730000 2.04980000e-02
-2.81730000 1.57455000e-02
-2.78730000 1.34237000e-02
-2.75730000 1.22644000e-02
-2.72730000 1.17120000e-02
-2.69730000 1.15568000e-02
-2.66730000 1.17715000e-02
-2.63730000 1.22771000e-02
-2.60730000 1.24309000e-02
-2.57730000 1.24867000e-02
-2.54730000 1.30250000e-02
-2.51730000 1.32089000e-02
-2.48730000 1.25841000e-02
-2.42739000 1.18980000e-02
-2.39739000 1.19026000e-02
-2.36739000 1.20274000e-02
-2.33739000 1.22259000e-02
-2.30739000 1.25078000e-02
-2.27739000 1.29354000e-02
-2.24739000 1.36045000e-02
-2.21739000 1.43300000e-02
-2.18739000 1.43543000e-02
-2.15739000 1.41917000e-02
-2.12739000 1.42929000e-02
-2.09739000 1.46106000e-02
-2.06739000 1.51164000e-02
-2.03739000 1.58677000e-02
-2.00739000 1.70345000e-02
-1.97739000 1.89107000e-02
-1.94739000 2.20942000e-02
-1.91739000 2.61862000e-02
-1.88739000 2.56345000e-02
-1.85739000 2.21555000e-02
-1.82739000 2.02452000e-02
-1.79739000 1.94934000e-02
-1.76739000 1.92783000e-02
-1.73739000 1.93962000e-02
-1.70739000 1.97171000e-02
-1.67739000 2.01725000e-02
-1.61747000 2.13988000e-02
-1.58747000 2.21900000e-02
-1.55747000 2.31620000e-02
-1.52747000 2.43524000e-02
-1.49747000 2.55968000e-02
-1.46747000 2.65724000e-02
-1.43747000 2.73772000e-02
-1.40747000 2.85860000e-02
-1.37747000 3.03925000e-02
-1.34747000 3.30719000e-02
-1.31747000 3.63762000e-02
-1.28747000 3.80829000e-02
-1.25747000 3.94405000e-02
-1.22747000 4.26450000e-02
-1.19747000 4.83466000e-02
-1.16747000 5.85680000e-02
-1.13747000 7.71327000e-02
-1.10747000 9.50538000e-02
-1.07747000 8.69960000e-02
-1.04747000 7.43389000e-02
-1.01747000 6.59211000e-02
-0.98747500 6.14082000e-02
-0.95747500 6.05630000e-02
-0.92747500 6.18828000e-02
-0.89747500 6.45422000e-02
-0.86747500 6.82068000e-02
-0.80756000 7.82821000e-02
-0.77756000 8.48785000e-02
-0.74756000 9.28075000e-02
-0.71756000 1.02496000e-01
-0.68756000 1.14699000e-01
-0.65756000 1.30863000e-01
-0.62756000 1.54000000e-01
-0.59756000 1.89559000e-01
-0.56756000 2.34306000e-01
-0.53756000 2.52876000e-01
-0.50756000 2.61617000e-01
-0.47756000 2.92915000e-01
-0.44756000 3.55685000e-01
-0.41756000 4.54745000e-01
-0.38756000 5.47187000e-01
-0.35756000 6.28467000e-01
-0.32756000 7.95088000e-01
-0.29756000 1.12613000e+00
-0.26756000 1.77187000e+00
-0.23756000 2.87567000e+00
-0.20756000 3.51501000e+00
-0.17756000 2.92267000e+00
-0.14756000 2.56440000e+00
-0.11756000 2.81530000e+00
-0.08755970 3.70912000e+00
-0.05755970 5.90406000e+00
0.00235513 1.03609000e+01
0.03235510 6.82288000e+00
0.06235510 4.48535000e+00
0.09235510 3.38719000e+00
0.12235500 2.30759000e+00
0.15235500 1.51337000e+00
0.18235500 1.06294000e+00
0.21235500 8.11265000e-01
0.24235500 6.82821000e-01
0.27235500 5.99254000e-01
0.30235500 4.78393000e-01
0.33235500 3.70773000e-01
0.36235500 2.98766000e-01
0.39235500 2.49313000e-01
0.42235500 2.12728000e-01
0.45235500 1.85094000e-01
0.48235500 1.63457000e-01
0.51235500 1.46101000e-01
0.54235500 1.32315000e-01
0.57235500 1.21261000e-01
0.60235500 1.12362000e-01
0.63235500 1.05966000e-01
0.66235500 1.02419000e-01
0.69235500 1.02293000e-01
0.72235500 1.01838000e-01
0.75235500 1.03052000e-01
