# E(MeV)  S_NSDRNSDR(Total=K0+2*K1) for Au213_DDPCX
-7.28688000 -3.59098200e-02
-7.25688000 -3.03068600e-02
-7.22688000 -2.47431000e-02
-7.19688000 -1.92154600e-02
-7.16688000 -1.37208000e-02
-7.13688000 -8.25640000e-03
-7.10688000 -2.81910000e-03
-7.07688000 2.59420000e-03
-7.04688000 7.98620000e-03
-7.01688000 1.33602000e-02
-6.98688000 1.87187000e-02
-6.95688000 2.40651000e-02
-6.92688000 2.94022000e-02
-6.89688000 3.47329000e-02
-6.86688000 4.00604000e-02
-6.83688000 4.53878000e-02
-6.80688000 5.07180700e-02
-6.77688000 5.60544900e-02
-6.74688000 6.14000400e-02
-6.71688000 6.67580900e-02
-6.68688000 7.21319940e-02
-6.65688000 7.75249500e-02
-6.62688000 8.29405600e-02
-6.59688000 8.83822400e-02
-6.56688000 9.38538400e-02
-6.53688000 9.93590300e-02
-6.47696000 1.10469700e-01
-6.44696000 1.16099100e-01
-6.41696000 1.21778500e-01
-6.38696000 1.27512300e-01
-6.35696000 1.33305100e-01
-6.32696000 1.39162600e-01
-6.29696000 1.45090000e-01
-6.26696000 1.51093600e-01
-6.23696000 1.57182300e-01
-6.20696000 1.63366100e-01
-6.17696000 1.69640600e-01
-6.14696000 1.75981900e-01
-6.11696000 1.82424900e-01
-6.08696000 1.88989600e-01
-6.05696000 1.95668600e-01
-6.02696000 2.02475600e-01
-5.99696000 2.09423600e-01
-5.96696000 2.16520800e-01
-5.93696000 2.23775900e-01
-5.90696000 2.31198900e-01
-5.87696000 2.38799000e-01
-5.84696000 2.46586800e-01
-5.81696000 2.54578800e-01
-5.78696000 2.62789600e-01
-5.75696000 2.71234300e-01
-5.72696000 2.79929600e-01
-5.66705000 2.98122200e-01
-5.63705000 3.07687500e-01
-5.60705000 3.17587900e-01
-5.57705000 3.27848900e-01
-5.54705000 3.38503000e-01
-5.51705000 3.49582600e-01
-5.48705000 3.61121200e-01
-5.45705000 3.73160000e-01
-5.42705000 3.85747000e-01
-5.39705000 3.98932000e-01
-5.36705000 4.12774000e-01
-5.33705000 4.27335000e-01
-5.30705000 4.42693000e-01
-5.27705000 4.58929000e-01
-5.24705000 4.76147000e-01
-5.21705000 4.94457000e-01
-5.18705000 5.13990000e-01
-5.15705000 5.34903000e-01
-5.12705000 5.57375000e-01
-5.09705000 5.81626000e-01
-5.06705000 6.07912000e-01
-5.03705000 6.36544000e-01
-5.00705000 6.67903000e-01
-4.97705000 7.02451000e-01
-4.94705000 7.40769000e-01
-4.91705000 7.83580000e-01
-4.85713000 8.86467000e-01
-4.82713000 9.49429000e-01
-4.79713000 1.02261300e+00
-4.76713000 1.10882600e+00
-4.73713000 1.21196200e+00
-4.70713000 1.33754400e+00
-4.67713000 1.49364100e+00
-4.64713000 1.69242000e+00
-4.61713000 1.95289700e+00
-4.58713000 2.30614400e+00
-4.55713000 2.80555300e+00
-4.52713000 3.54866200e+00
-4.49713000 4.72668600e+00
-4.46713000 6.74520300e+00
-4.43713000 1.05230550e+01
-4.40713000 1.80154900e+01
-4.37713000 3.01293090e+01
-4.34713000 3.28611480e+01
-4.31713000 2.12969100e+01
-4.28713000 1.27892770e+01
-4.25713000 8.77185600e+00
-4.22713000 6.99909000e+00
-4.19713000 5.76832000e+00
-4.16713000 4.85530000e+00
-4.13713000 4.46837000e+00
-4.10713000 4.49864000e+00
-4.04722000 5.69381000e+00
-4.01722000 7.07708000e+00
-3.98722000 9.19186000e+00
-3.95722000 1.28160000e+01
-3.92722000 1.97977400e+01
-3.89722000 3.33930400e+01
-3.86722000 4.79301400e+01
-3.83722000 3.90654000e+01
-3.80722000 2.31522800e+01
-3.77722000 1.41711600e+01
-3.74722000 9.68039400e+00
-3.71722000 7.37905200e+00
-3.68722000 6.20593800e+00
-3.65722000 5.72863000e+00
-3.62722000 5.67694000e+00
-3.59722000 5.63666000e+00
-3.56722000 5.83263000e+00
-3.53722000 6.55813000e+00
-3.50722000 7.83433000e+00
-3.47722000 8.66428000e+00
-3.44722000 8.86005000e+00
-3.41722000 9.22019000e+00
-3.38722000 9.84238000e+00
-3.35722000 1.07214700e+01
-3.32722000 1.30970300e+01
-3.29722000 1.85154000e+01
-3.23730000 4.09973300e+01
-3.20730000 3.84218500e+01
-3.17730000 3.00906000e+01
-3.14730000 2.91210000e+01
-3.11730000 2.94915700e+01
-3.08730000 2.45664800e+01
-3.05730000 2.15202200e+01
-3.02730000 2.28882900e+01
-2.99730000 2.94693800e+01
-2.96730000 4.39144700e+01
-2.93730000 5.95957800e+01
-2.90730000 5.52564500e+01
-2.87730000 4.72691900e+01
-2.84730000 4.57637700e+01
-2.81730000 5.57911000e+01
-2.78730000 7.59818000e+01
-2.75730000 8.95163000e+01
-2.72730000 1.05950500e+02
-2.69730000 1.21763890e+02
-2.66730000 1.09409840e+02
-2.63730000 8.12226900e+01
-2.60730000 5.41755800e+01
-2.57730000 4.13679000e+01
-2.54730000 3.99056000e+01
-2.51730000 4.79242400e+01
-2.48730000 5.68793600e+01
-2.42739000 4.90592000e+01
-2.39739000 4.31955000e+01
-2.36739000 3.42729000e+01
-2.33739000 3.07984400e+01
-2.30739000 2.89124400e+01
-2.27739000 2.77027800e+01
-2.24739000 2.97462200e+01
-2.21739000 3.59480000e+01
-2.18739000 4.81731000e+01
-2.15739000 7.05655000e+01
-2.12739000 1.06721500e+02
-2.09739000 1.50133900e+02
-2.06739000 1.89461500e+02
-2.03739000 2.52069200e+02
-2.00739000 2.99698400e+02
-1.97739000 2.22066800e+02
-1.94739000 1.38878000e+02
-1.91739000 9.89260000e+01
-1.88739000 7.14040000e+01
-1.85739000 5.15396000e+01
-1.82739000 4.29275000e+01
-1.79739000 4.33777000e+01
-1.76739000 4.56271600e+01
-1.73739000 3.94005200e+01
-1.70739000 3.25917800e+01
-1.67739000 3.09415000e+01
-1.61747000 5.23636200e+01
-1.58747000 7.31658700e+01
-1.55747000 6.55121800e+01
-1.52747000 4.16937700e+01
-1.49747000 2.77697200e+01
-1.46747000 2.16398300e+01
-1.43747000 1.90839200e+01
-1.40747000 1.81621800e+01
-1.37747000 1.88743600e+01
-1.34747000 1.92426700e+01
-1.31747000 2.10990400e+01
-1.28747000 2.45401800e+01
-1.25747000 3.10332200e+01
-1.22747000 3.18867500e+01
-1.19747000 2.36950300e+01
-1.16747000 1.84215500e+01
-1.13747000 1.72816100e+01
-1.10747000 1.93956700e+01
-1.07747000 2.36550900e+01
-1.04747000 2.40473500e+01
-1.01747000 1.84417900e+01
-0.98747500 1.46112700e+01
-0.95747500 1.36098000e+01
-0.92747500 1.43034000e+01
-0.89747500 1.72354200e+01
-0.86747500 2.39353600e+01
-0.80756000 3.95012700e+01
-0.77756000 3.06258500e+01
-0.74756000 2.40234800e+01
-0.71756000 2.21899400e+01
-0.68756000 2.39842600e+01
-0.65756000 2.95227000e+01
-0.62756000 4.23257500e+01
-0.59756000 6.55325300e+01
-0.56756000 8.98042000e+01
-0.53756000 9.55576000e+01
-0.50756000 7.98975000e+01
-0.47756000 7.95124000e+01
-0.44756000 9.16800000e+01
-0.41756000 7.81833000e+01
-0.38756000 5.35879000e+01
-0.35756000 4.07499900e+01
-0.32756000 3.34161200e+01
-0.29756000 2.94010400e+01
-0.26756000 2.81862300e+01
-0.23756000 2.92500300e+01
-0.20756000 2.92055000e+01
-0.17756000 2.89817300e+01
-0.14756000 3.20999800e+01
-0.11756000 3.19745200e+01
-0.08755970 2.94899500e+01
-0.05755970 2.96488200e+01
0.00235513 4.50115000e+01
0.03235510 6.37570000e+01
0.06235510 7.67166000e+01
0.09235510 9.19440000e+01
0.12235500 1.01155200e+02
0.15235500 8.45000000e+01
0.18235500 6.15126000e+01
0.21235500 3.98089000e+01
0.24235500 2.70970100e+01
0.27235500 2.12394200e+01
0.30235500 1.89137600e+01
0.33235500 1.84822500e+01
0.36235500 1.96756200e+01
0.39235500 2.32397900e+01
0.42235500 3.08865100e+01
0.45235500 3.45276000e+01
0.48235500 2.62524500e+01
0.51235500 1.79895100e+01
0.54235500 1.35325900e+01
0.57235500 1.17050400e+01
0.60235500 1.15008300e+01
0.63235500 1.26245900e+01
0.66235500 1.54254800e+01
0.69235500 2.06462200e+01
0.72235500 3.07413200e+01
0.75235500 4.78261000e+01
