# E(MeV)  S_GAMTGAMT(Total=K0+2*K1) for Au213_DDPCX
-7.28688000 9.29676000e-03
-7.25688000 8.94573000e-03
-7.22688000 8.72916000e-03
-7.19688000 8.54523000e-03
-7.16688000 8.42631000e-03
-7.13688000 8.37637000e-03
-7.10688000 8.36490000e-03
-7.07688000 8.37419000e-03
-7.04688000 8.39459000e-03
-7.01688000 8.41960000e-03
-6.98688000 8.44874000e-03
-6.95688000 8.48166000e-03
-6.92688000 8.51725000e-03
-6.89688000 8.55474000e-03
-6.86688000 8.59374000e-03
-6.83688000 8.63392000e-03
-6.80688000 8.67513000e-03
-6.77688000 8.71724000e-03
-6.74688000 8.76017000e-03
-6.71688000 8.80383000e-03
-6.68688000 8.84819000e-03
-6.65688000 8.89326000e-03
-6.62688000 8.93900000e-03
-6.59688000 8.98540000e-03
-6.56688000 9.03250000e-03
-6.53688000 9.08031000e-03
-6.47696000 9.17819000e-03
-6.44696000 9.22858000e-03
-6.41696000 9.28021000e-03
-6.38696000 9.33349000e-03
-6.35696000 9.38932000e-03
-6.32696000 9.44972000e-03
-6.29696000 9.51906000e-03
-6.26696000 9.60338000e-03
-6.23696000 9.68119000e-03
-6.20696000 9.71088000e-03
-6.17696000 9.73760000e-03
-6.14696000 9.77941000e-03
-6.11696000 9.83030000e-03
-6.08696000 9.88628000e-03
-6.05696000 9.94576000e-03
-6.02696000 1.00083000e-02
-5.99696000 1.00739700e-02
-5.96696000 1.01434600e-02
-5.93696000 1.02179500e-02
-5.90696000 1.02996500e-02
-5.87696000 1.03927500e-02
-5.84696000 1.05055100e-02
-5.81696000 1.06558700e-02
-5.78696000 1.08844000e-02
-5.75696000 1.12650400e-02
-5.72696000 1.17184400e-02
-5.66705000 1.14547300e-02
-5.63705000 1.12819100e-02
-5.60705000 1.12257900e-02
-5.57705000 1.12501400e-02
-5.54705000 1.13212500e-02
-5.51705000 1.14257900e-02
-5.48705000 1.15623200e-02
-5.45705000 1.17380800e-02
-5.42705000 1.19709400e-02
-5.39705000 1.22979100e-02
-5.36705000 1.27978800e-02
-5.33705000 1.36458800e-02
-5.30705000 1.51726700e-02
-5.27705000 1.71902300e-02
-5.24705000 1.74419900e-02
-5.21705000 1.70224000e-02
-5.18705000 1.82830700e-02
-5.15705000 2.18653900e-02
-5.12705000 2.61744700e-02
-5.09705000 2.40421600e-02
-5.06705000 1.92033700e-02
-5.03705000 1.64021700e-02
-5.00705000 1.50106500e-02
-4.97705000 1.43486200e-02
-4.94705000 1.40851200e-02
-4.91705000 1.41221000e-02
-4.85713000 1.53756500e-02
-4.82713000 1.61819200e-02
-4.79713000 1.55785400e-02
-4.76713000 1.46597100e-02
-4.73713000 1.42036500e-02
-4.70713000 1.40489500e-02
-4.67713000 1.40659300e-02
-4.64713000 1.42166700e-02
-4.61713000 1.44500500e-02
-4.58713000 1.46320700e-02
-4.55713000 1.49268200e-02
-4.52713000 1.55704500e-02
-4.49713000 1.68303200e-02
-4.46713000 1.86816300e-02
-4.43713000 1.89656600e-02
-4.40713000 1.73046200e-02
-4.37713000 1.61800300e-02
-4.34713000 1.57136800e-02
-4.31713000 1.55965900e-02
-4.28713000 1.56931700e-02
-4.25713000 1.59821700e-02
-4.22713000 1.65358700e-02
-4.19713000 1.76079700e-02
-4.16713000 1.95315500e-02
-4.13713000 2.12592000e-02
-4.10713000 2.04905700e-02
-4.04722000 1.74548200e-02
-4.01722000 1.69220000e-02
-3.98722000 1.67005400e-02
-3.95722000 1.66386700e-02
-3.92722000 1.66632300e-02
-3.89722000 1.67400700e-02
-3.86722000 1.68529300e-02
-3.83722000 1.69930300e-02
-3.80722000 1.71566700e-02
-3.77722000 1.73501900e-02
-3.74722000 1.75802900e-02
-3.71722000 1.78408700e-02
-3.68722000 1.81627000e-02
-3.65722000 1.86311700e-02
-3.62722000 1.93881800e-02
-3.59722000 2.05558100e-02
-3.56722000 2.14374200e-02
-3.53722000 2.12938100e-02
-3.50722000 2.08057100e-02
-3.47722000 2.03388500e-02
-3.44722000 2.02045900e-02
-3.41722000 2.02325000e-02
-3.38722000 2.03898600e-02
-3.35722000 2.06693000e-02
-3.32722000 2.09996500e-02
-3.29722000 2.13766800e-02
-3.23730000 2.25243000e-02
-3.20730000 2.31928100e-02
-3.17730000 2.40518700e-02
-3.14730000 2.52912200e-02
-3.11730000 2.69448600e-02
-3.08730000 2.94967400e-02
-3.05730000 3.39547200e-02
-3.02730000 3.96419200e-02
-2.99730000 4.18534600e-02
-2.96730000 4.52626000e-02
-2.93730000 5.57729000e-02
-2.90730000 7.19245000e-02
-2.87730000 8.37443000e-02
-2.84730000 8.70448000e-02
-2.81730000 6.82457000e-02
-2.78730000 5.08321000e-02
-2.75730000 4.20504000e-02
-2.72730000 3.73648000e-02
-2.69730000 3.45602000e-02
-2.66730000 3.36233000e-02
-2.63730000 3.41781000e-02
-2.60730000 3.50893000e-02
-2.57730000 3.55657000e-02
-2.54730000 3.65440000e-02
-2.51730000 3.87533000e-02
-2.48730000 4.08147000e-02
-2.42739000 3.60690000e-02
-2.39739000 3.41602000e-02
-2.36739000 3.33978000e-02
-2.33739000 3.33857000e-02
-2.30739000 3.39254000e-02
-2.27739000 3.49352000e-02
-2.24739000 3.57879000e-02
-2.21739000 3.63090000e-02
-2.18739000 3.63905000e-02
-2.15739000 3.65659000e-02
-2.12739000 3.72887000e-02
-2.09739000 3.82996000e-02
-2.06739000 3.92994000e-02
-2.03739000 4.07841000e-02
-2.00739000 4.31401000e-02
-1.97739000 4.67553000e-02
-1.94739000 5.15402000e-02
-1.91739000 5.55014000e-02
-1.88739000 5.46517000e-02
-1.85739000 5.20089000e-02
-1.82739000 5.24808000e-02
-1.79739000 5.56660000e-02
-1.76739000 5.78885000e-02
-1.73739000 5.64620000e-02
-1.70739000 5.41279000e-02
-1.67739000 5.29419000e-02
-1.61747000 5.39674000e-02
-1.58747000 5.51684000e-02
-1.55747000 5.67422000e-02
-1.52747000 5.87826000e-02
-1.49747000 6.10524000e-02
-1.46747000 6.32014000e-02
-1.43747000 6.55078000e-02
-1.40747000 6.86842000e-02
-1.37747000 7.24253000e-02
-1.34747000 7.66337000e-02
-1.31747000 8.22820000e-02
-1.28747000 8.77287000e-02
-1.25747000 9.45707000e-02
-1.22747000 1.05639200e-01
-1.19747000 1.14370200e-01
-1.16747000 1.21292800e-01
-1.13747000 1.37186700e-01
-1.10747000 1.54526600e-01
-1.07747000 1.47776000e-01
-1.04747000 1.37759900e-01
-1.01747000 1.33156700e-01
-0.98747500 1.33810200e-01
-0.95747500 1.40368600e-01
-0.92747500 1.53795800e-01
-0.89747500 1.75253400e-01
-0.86747500 1.91110200e-01
-0.80756000 2.01291500e-01
-0.77756000 2.09612300e-01
-0.74756000 2.18715300e-01
-0.71756000 2.34478800e-01
-0.68756000 2.54563600e-01
-0.65756000 2.74825000e-01
-0.62756000 3.04500000e-01
-0.59756000 3.52255800e-01
-0.56756000 4.15108400e-01
-0.53756000 4.59604000e-01
-0.50756000 5.06243000e-01
-0.47756000 5.89805000e-01
-0.44756000 7.03829000e-01
-0.41756000 8.53727000e-01
-0.38756000 1.02005300e+00
-0.35756000 1.21501100e+00
-0.32756000 1.54381000e+00
-0.29756000 2.03090400e+00
-0.26756000 2.92889400e+00
-0.23756000 4.51742800e+00
-0.20756000 5.59559000e+00
-0.17756000 4.84649000e+00
-0.14756000 4.43771400e+00
-0.11756000 5.13256000e+00
-0.08755970 7.17534000e+00
-0.05755970 1.14167400e+01
0.00235513 1.79202600e+01
0.03235510 1.21501400e+01
0.06235510 8.44891000e+00
0.09235510 7.06551000e+00
0.12235500 5.89423000e+00
0.15235500 4.91371000e+00
0.18235500 5.13524000e+00
0.21235500 6.33774500e+00
0.24235500 6.07046100e+00
0.27235500 4.71421400e+00
0.30235500 4.26545300e+00
0.33235500 4.34605300e+00
0.36235500 4.57582600e+00
0.39235500 4.41101300e+00
0.42235500 4.23972800e+00
0.45235500 4.20253400e+00
0.48235500 3.33897700e+00
0.51235500 2.77132100e+00
0.54235500 2.67865500e+00
0.57235500 2.53366100e+00
0.60235500 1.88120000e+00
0.63235500 1.41145000e+00
0.66235500 1.26053500e+00
0.69235500 1.39363500e+00
0.72235500 1.77056800e+00
0.75235500 1.82703800e+00
