# E(MeV)  S_GAMTGAMT(K=1) for Au215_DDPCX
-7.51717000 3.12955000e-03
-7.48717000 2.99648000e-03
-7.45717000 2.93861000e-03
-7.42717000 2.91617000e-03
-7.39717000 2.90783000e-03
-7.36717000 2.90242000e-03
-7.33717000 2.90111000e-03
-7.30717000 2.90524000e-03
-7.27717000 2.91285000e-03
-7.24717000 2.92255000e-03
-7.21717000 2.93365000e-03
-7.18717000 2.94576000e-03
-7.15717000 2.95864000e-03
-7.12717000 2.97220000e-03
-7.09717000 2.98639000e-03
-7.06717000 3.00129000e-03
-7.03717000 3.01709000e-03
-7.00717000 3.03430000e-03
-6.97717000 3.05408000e-03
-6.94717000 3.07804000e-03
-6.91717000 3.10184000e-03
-6.88717000 3.11877000e-03
-6.85717000 3.14253000e-03
-6.82717000 3.17275000e-03
-6.79717000 3.18051000e-03
-6.76717000 3.17753000e-03
-6.73717000 3.18272000e-03
-6.68422000 3.20427000e-03
-6.65422000 3.21948000e-03
-6.62422000 3.23575000e-03
-6.59422000 3.25275000e-03
-6.56422000 3.27035000e-03
-6.53422000 3.28849000e-03
-6.50422000 3.30718000e-03
-6.47422000 3.32648000e-03
-6.44422000 3.34650000e-03
-6.41422000 3.36745000e-03
-6.38422000 3.38968000e-03
-6.35422000 3.41382000e-03
-6.32422000 3.44102000e-03
-6.29422000 3.47364000e-03
-6.26422000 3.51681000e-03
-6.23422000 3.58221000e-03
-6.20422000 3.69131000e-03
-6.17422000 3.82026000e-03
-6.14422000 3.80046000e-03
-6.11422000 3.70969000e-03
-6.08422000 3.66572000e-03
-6.05422000 3.65538000e-03
-6.02422000 3.66114000e-03
-5.99422000 3.67497000e-03
-5.96422000 3.69338000e-03
-5.93422000 3.71478000e-03
-5.90422000 3.73842000e-03
-5.85128000 3.78483000e-03
-5.82128000 3.81380000e-03
-5.79128000 3.84497000e-03
-5.76128000 3.87875000e-03
-5.73128000 3.91579000e-03
-5.70128000 3.95705000e-03
-5.67128000 4.00400000e-03
-5.64128000 4.05890000e-03
-5.61128000 4.12542000e-03
-5.58128000 4.20977000e-03
-5.55128000 4.32306000e-03
-5.52128000 4.48654000e-03
-5.49128000 4.74089000e-03
-5.46128000 5.15550000e-03
-5.43128000 5.89545000e-03
-5.40128000 7.24433000e-03
-5.37128000 8.94464000e-03
-5.34128000 8.70763000e-03
-5.31128000 6.95709000e-03
-5.28128000 5.85418000e-03
-5.25128000 5.33531000e-03
-5.22128000 5.11310000e-03
-5.19128000 5.02612000e-03
-5.16128000 5.04195000e-03
-5.13128000 5.21656000e-03
-5.10128000 5.65527000e-03
-5.07128000 6.45101000e-03
-5.01833000 6.26184000e-03
-4.98833000 5.55781000e-03
-4.95833000 5.20494000e-03
-4.92833000 5.05878000e-03
-4.89833000 5.02408000e-03
-4.86833000 5.06978000e-03
-4.83833000 5.18121000e-03
-4.80833000 5.36992000e-03
-4.77833000 5.72964000e-03
-4.74833000 6.01157000e-03
-4.71833000 5.87741000e-03
-4.68833000 5.71882000e-03
-4.65833000 5.49660000e-03
-4.62833000 5.32307000e-03
-4.59833000 5.25405000e-03
-4.56833000 5.25109000e-03
-4.53833000 5.28943000e-03
-4.50833000 5.32855000e-03
-4.47833000 5.34856000e-03
-4.44833000 5.38688000e-03
-4.41833000 5.44957000e-03
-4.38833000 5.53655000e-03
-4.35833000 5.65445000e-03
-4.32833000 5.81078000e-03
-4.29833000 6.00553000e-03
-4.26833000 6.29415000e-03
-4.23833000 6.78684000e-03
-4.18539000 8.89272000e-03
-4.15539000 1.13552000e-02
-4.12539000 1.23261000e-02
-4.09539000 1.02892000e-02
-4.06539000 8.66638000e-03
-4.03539000 7.99242000e-03
-4.00539000 7.61035000e-03
-3.97539000 7.14545000e-03
-3.94539000 6.91084000e-03
-3.91539000 6.93885000e-03
-3.88539000 7.04823000e-03
-3.85539000 6.90584000e-03
-3.82539000 6.71698000e-03
-3.79539000 6.64157000e-03
-3.76539000 6.65928000e-03
-3.73539000 6.72761000e-03
-3.70539000 6.75112000e-03
-3.67539000 6.75290000e-03
-3.64539000 6.79091000e-03
-3.61539000 6.86260000e-03
-3.58539000 6.96782000e-03
-3.55539000 7.10971000e-03
-3.52539000 7.23980000e-03
-3.49539000 7.34585000e-03
-3.46539000 7.52528000e-03
-3.43539000 7.84285000e-03
-3.40539000 8.30011000e-03
-3.35245000 8.51018000e-03
-3.32245000 8.71521000e-03
-3.29245000 9.17777000e-03
-3.26245000 9.58996000e-03
-3.23245000 1.03247000e-02
-3.20245000 1.18459000e-02
-3.17245000 1.34323000e-02
-3.14245000 1.41111000e-02
-3.11245000 1.28791000e-02
-3.08245000 1.12392000e-02
-3.05245000 1.03703000e-02
-3.02245000 1.00876000e-02
-2.99245000 1.02324000e-02
-2.96245000 1.08741000e-02
-2.93245000 1.21502000e-02
-2.90245000 1.32130000e-02
-2.87245000 1.31204000e-02
-2.84245000 1.25785000e-02
-2.81245000 1.23388000e-02
-2.78245000 1.28037000e-02
-2.75245000 1.39603000e-02
-2.72245000 1.38170000e-02
-2.69245000 1.26338000e-02
-2.66245000 1.18070000e-02
-2.63245000 1.13266000e-02
-2.60245000 1.11308000e-02
-2.57245000 1.11429000e-02
-2.51950000 1.14882000e-02
-2.48950000 1.16740000e-02
-2.45950000 1.17486000e-02
-2.42950000 1.19138000e-02
-2.39950000 1.21530000e-02
-2.36950000 1.24377000e-02
-2.33950000 1.28242000e-02
-2.30950000 1.32337000e-02
-2.27950000 1.37391000e-02
-2.24950000 1.45080000e-02
-2.21950000 1.55749000e-02
-2.18950000 1.66316000e-02
-2.15950000 1.73465000e-02
-2.12950000 1.82430000e-02
-2.09950000 1.82029000e-02
-2.06950000 1.71396000e-02
-2.03950000 1.66082000e-02
-2.00950000 1.65533000e-02
-1.97950000 1.66916000e-02
-1.94950000 1.69775000e-02
-1.91950000 1.74179000e-02
-1.88950000 1.79981000e-02
-1.85950000 1.87279000e-02
-1.82950000 1.96858000e-02
-1.79950000 2.10590000e-02
-1.76950000 2.32602000e-02
-1.73950000 2.70961000e-02
-1.68656000 3.28907000e-02
-1.65656000 2.95290000e-02
-1.62656000 2.73567000e-02
-1.59656000 2.66364000e-02
-1.56656000 2.67330000e-02
-1.53656000 2.74320000e-02
-1.50656000 2.85104000e-02
-1.47656000 2.99171000e-02
-1.44656000 3.18440000e-02
-1.41656000 3.45475000e-02
-1.38656000 3.77306000e-02
-1.35656000 3.98499000e-02
-1.32656000 4.22585000e-02
-1.29656000 4.62899000e-02
-1.26656000 5.07379000e-02
-1.23656000 5.53467000e-02
-1.20656000 6.26994000e-02
-1.17656000 7.45780000e-02
-1.14656000 9.47951000e-02
-1.11656000 1.30603000e-01
-1.08656000 1.92816000e-01
-1.05656000 2.63232000e-01
-1.02656000 2.41285000e-01
-0.99656100 1.82838000e-01
-0.96656100 1.55396000e-01
-0.93656100 1.43685000e-01
-0.90656100 1.46243000e-01
-0.85361700 1.89128000e-01
-0.82361700 2.42821000e-01
-0.79361700 3.17420000e-01
-0.76361700 4.01343000e-01
-0.73361700 5.33560000e-01
-0.70361700 7.36588000e-01
-0.67361700 1.09511000e+00
-0.64361700 1.30493000e+00
-0.61361700 9.73690000e-01
-0.58361700 6.98773000e-01
-0.55361700 6.45810000e-01
-0.52361700 7.64381000e-01
-0.49361700 9.15305000e-01
-0.46361700 9.88008000e-01
-0.43361700 8.82318000e-01
-0.40361700 7.47076000e-01
-0.37361700 6.90019000e-01
-0.34361700 6.92527000e-01
-0.31361700 7.49838000e-01
-0.28361700 7.59543000e-01
-0.25361700 8.07086000e-01
-0.22361700 1.00173000e+00
-0.19361700 1.39428000e+00
-0.16361700 2.15098000e+00
-0.13361700 3.18996000e+00
-0.10361700 2.97214000e+00
-0.07361710 2.02781000e+00
-0.02067360 1.61674000e+00
0.00932644 1.86444000e+00
0.03932640 2.23698000e+00
0.06932640 2.82199000e+00
0.09932640 3.35285000e+00
0.12932600 3.46835000e+00
0.15932600 3.79265000e+00
0.18932600 3.79654000e+00
0.21932600 2.87327000e+00
0.24932600 2.02610000e+00
0.27932600 1.74174000e+00
0.30932600 1.61423000e+00
0.33932600 1.60705000e+00
0.36932600 1.52619000e+00
0.39932600 1.06315000e+00
0.42932600 6.88618000e-01
0.45932600 4.88759000e-01
0.48932600 3.78796000e-01
0.51932600 3.08124000e-01
0.54932600 2.64517000e-01
0.57932600 2.43606000e-01
0.60932600 2.41615000e-01
0.63932600 2.54970000e-01
0.66932600 2.95150000e-01
0.69932600 3.85020000e-01
0.72932600 5.45846000e-01
0.75932600 6.69005000e-01
