# E(MeV)  S_GAMTGAMT(K=1) for Au213_DDPCX
-7.28688000 3.20124000e-03
-7.25688000 3.04391000e-03
-7.22688000 2.94242000e-03
-7.19688000 2.85143000e-03
-7.16688000 2.79016000e-03
-7.13688000 2.76217000e-03
-7.10688000 2.75220000e-03
-7.07688000 2.75168000e-03
-7.04688000 2.75610000e-03
-7.01688000 2.76239000e-03
-6.98688000 2.77043000e-03
-6.95688000 2.78011000e-03
-6.92688000 2.79092000e-03
-6.89688000 2.80251000e-03
-6.86688000 2.81470000e-03
-6.83688000 2.82735000e-03
-6.80688000 2.84039000e-03
-6.77688000 2.85376000e-03
-6.74688000 2.86743000e-03
-6.71688000 2.88136000e-03
-6.68688000 2.89554000e-03
-6.65688000 2.90997000e-03
-6.62688000 2.92463000e-03
-6.59688000 2.93952000e-03
-6.56688000 2.95466000e-03
-6.53688000 2.97005000e-03
-6.47696000 3.00167000e-03
-6.44696000 3.01803000e-03
-6.41696000 3.03490000e-03
-6.38696000 3.05248000e-03
-6.35696000 3.07122000e-03
-6.32696000 3.09212000e-03
-6.29696000 3.11736000e-03
-6.26696000 3.14996000e-03
-6.23696000 3.17917000e-03
-6.20696000 3.18417000e-03
-6.17696000 3.18753000e-03
-6.14696000 3.19827000e-03
-6.11696000 3.21337000e-03
-6.08696000 3.23082000e-03
-6.05696000 3.24981000e-03
-6.02696000 3.27009000e-03
-5.99696000 3.29167000e-03
-5.96696000 3.31484000e-03
-5.93696000 3.34014000e-03
-5.90696000 3.36857000e-03
-5.87696000 3.40209000e-03
-5.84696000 3.44458000e-03
-5.81696000 3.50457000e-03
-5.78696000 3.60145000e-03
-5.75696000 3.77025000e-03
-5.72696000 3.96707000e-03
-5.66705000 3.76250000e-03
-5.63705000 3.68375000e-03
-5.60705000 3.65954000e-03
-5.57705000 3.66207000e-03
-5.54705000 3.67892000e-03
-5.51705000 3.70506000e-03
-5.48705000 3.73871000e-03
-5.45705000 3.77983000e-03
-5.42705000 3.82969000e-03
-5.39705000 3.89092000e-03
-5.36705000 3.96823000e-03
-5.33705000 4.06975000e-03
-5.30705000 4.21012000e-03
-5.27705000 4.41715000e-03
-5.24705000 4.74763000e-03
-5.21705000 5.32550000e-03
-5.18705000 6.41781000e-03
-5.15705000 8.41887000e-03
-5.12705000 1.06849000e-02
-5.09705000 9.69299000e-03
-5.06705000 7.31192000e-03
-5.03705000 5.93301000e-03
-5.00705000 5.24909000e-03
-4.97705000 4.91961000e-03
-4.94705000 4.78197000e-03
-4.91705000 4.78875000e-03
-4.85713000 5.38180000e-03
-4.82713000 5.77050000e-03
-4.79713000 5.45080000e-03
-4.76713000 4.96862000e-03
-4.73713000 4.71306000e-03
-4.70713000 4.60247000e-03
-4.67713000 4.56986000e-03
-4.64713000 4.59225000e-03
-4.61713000 4.63648000e-03
-4.58713000 4.62039000e-03
-4.55713000 4.59353000e-03
-4.52713000 4.60142000e-03
-4.49713000 4.64159000e-03
-4.46713000 4.69425000e-03
-4.43713000 4.70465000e-03
-4.40713000 4.70508000e-03
-4.37713000 4.72586000e-03
-4.34713000 4.76262000e-03
-4.31713000 4.81286000e-03
-4.28713000 4.87934000e-03
-4.25713000 4.97105000e-03
-4.22713000 5.10912000e-03
-4.19713000 5.34263000e-03
-4.16713000 5.77356000e-03
-4.13713000 6.42072000e-03
-4.10713000 6.52358000e-03
-4.04722000 5.59905000e-03
-4.01722000 5.42011000e-03
-3.98722000 5.34648000e-03
-3.95722000 5.32676000e-03
-3.92722000 5.33553000e-03
-3.89722000 5.36113000e-03
-3.86722000 5.39812000e-03
-3.83722000 5.44384000e-03
-3.80722000 5.49824000e-03
-3.77722000 5.56349000e-03
-3.74722000 5.64134000e-03
-3.71722000 5.72957000e-03
-3.68722000 5.84330000e-03
-3.65722000 6.01348000e-03
-3.62722000 6.29595000e-03
-3.59722000 6.77270000e-03
-3.56722000 7.20359000e-03
-3.53722000 7.15650000e-03
-3.50722000 6.90227000e-03
-3.47722000 6.63242000e-03
-3.44722000 6.51601000e-03
-3.41722000 6.47760000e-03
-3.38722000 6.49464000e-03
-3.35722000 6.55929000e-03
-3.32722000 6.63272000e-03
-3.29722000 6.70488000e-03
-3.23730000 6.93459000e-03
-3.20730000 7.10573000e-03
-3.17730000 7.33158000e-03
-3.14730000 7.60886000e-03
-3.11730000 7.85578000e-03
-3.08730000 8.10127000e-03
-3.05730000 8.46956000e-03
-3.02730000 9.04481000e-03
-2.99730000 9.97243000e-03
-2.96730000 1.14980000e-02
-2.93730000 1.40108000e-02
-2.90730000 1.87142000e-02
-2.87730000 2.73110000e-02
-2.84730000 3.32734000e-02
-2.81730000 2.62501000e-02
-2.78730000 1.87042000e-02
-2.75730000 1.48930000e-02
-2.72730000 1.28264000e-02
-2.69730000 1.15017000e-02
-2.66730000 1.09259000e-02
-2.63730000 1.09505000e-02
-2.60730000 1.13292000e-02
-2.57730000 1.15395000e-02
-2.54730000 1.17595000e-02
-2.51730000 1.27722000e-02
-2.48730000 1.41153000e-02
-2.42739000 1.20855000e-02
-2.39739000 1.11288000e-02
-2.36739000 1.06852000e-02
-2.33739000 1.05799000e-02
-2.30739000 1.07088000e-02
-2.27739000 1.09999000e-02
-2.24739000 1.10917000e-02
-2.21739000 1.09895000e-02
-2.18739000 1.10181000e-02
-2.15739000 1.11871000e-02
-2.12739000 1.14979000e-02
-2.09739000 1.18445000e-02
-2.06739000 1.20915000e-02
-2.03739000 1.24582000e-02
-2.00739000 1.30528000e-02
-1.97739000 1.39223000e-02
-1.94739000 1.47230000e-02
-1.91739000 1.46576000e-02
-1.88739000 1.45086000e-02
-1.85739000 1.49267000e-02
-1.82739000 1.61178000e-02
-1.79739000 1.80863000e-02
-1.76739000 1.93051000e-02
-1.73739000 1.85329000e-02
-1.70739000 1.72054000e-02
-1.67739000 1.63847000e-02
-1.61747000 1.62843000e-02
-1.58747000 1.64892000e-02
-1.55747000 1.67901000e-02
-1.52747000 1.72151000e-02
-1.49747000 1.77278000e-02
-1.46747000 1.83145000e-02
-1.43747000 1.90653000e-02
-1.40747000 2.00491000e-02
-1.37747000 2.10164000e-02
-1.34747000 2.17809000e-02
-1.31747000 2.29529000e-02
-1.28747000 2.48229000e-02
-1.25747000 2.75651000e-02
-1.22747000 3.14971000e-02
-1.19747000 3.30118000e-02
-1.16747000 3.13624000e-02
-1.13747000 3.00270000e-02
-1.10747000 2.97364000e-02
-1.07747000 3.03900000e-02
-1.04747000 3.17105000e-02
-1.01747000 3.36178000e-02
-0.98747500 3.62010000e-02
-0.95747500 3.99028000e-02
-0.92747500 4.59565000e-02
-0.89747500 5.53556000e-02
-0.86747500 6.14517000e-02
-0.80756000 6.15047000e-02
-0.77756000 6.23669000e-02
-0.74756000 6.29539000e-02
-0.71756000 6.59914000e-02
-0.68756000 6.99323000e-02
-0.65756000 7.19810000e-02
-0.62756000 7.52500000e-02
-0.59756000 8.13484000e-02
-0.56756000 9.04012000e-02
-0.53756000 1.03364000e-01
-0.50756000 1.22313000e-01
-0.47756000 1.48445000e-01
-0.44756000 1.74072000e-01
-0.41756000 1.99491000e-01
-0.38756000 2.36433000e-01
-0.35756000 2.93272000e-01
-0.32756000 3.74361000e-01
-0.29756000 4.52387000e-01
-0.26756000 5.78512000e-01
-0.23756000 8.20879000e-01
-0.20756000 1.04029000e+00
-0.17756000 9.61910000e-01
-0.14756000 9.36657000e-01
-0.11756000 1.15863000e+00
-0.08755970 1.73311000e+00
-0.05755970 2.75634000e+00
0.00235513 3.77968000e+00
0.03235510 2.66363000e+00
0.06235510 1.98178000e+00
0.09235510 1.83916000e+00
0.12235500 1.79332000e+00
0.15235500 1.70017000e+00
0.18235500 2.03615000e+00
0.21235500 2.76324000e+00
0.24235500 2.69382000e+00
0.27235500 2.05748000e+00
0.30235500 1.89353000e+00
0.33235500 1.98764000e+00
0.36235500 2.13853000e+00
0.39235500 2.08085000e+00
0.42235500 2.01350000e+00
0.45235500 2.00872000e+00
0.48235500 1.58776000e+00
0.51235500 1.31261000e+00
0.54235500 1.27317000e+00
0.57235500 1.20620000e+00
0.60235500 8.84419000e-01
0.63235500 6.52742000e-01
0.66235500 5.79058000e-01
0.69235500 6.45671000e-01
0.72235500 8.34365000e-01
0.75235500 8.61993000e-01
