# E(MeV)  S_GAMTGAMT(K=0) for Au215_DDPCX
-7.51717000 3.06284000e-03
-7.48717000 3.02872000e-03
-7.45717000 3.01766000e-03
-7.42717000 3.01777000e-03
-7.39717000 3.02383000e-03
-7.36717000 3.03339000e-03
-7.33717000 3.04524000e-03
-7.30717000 3.05887000e-03
-7.27717000 3.07425000e-03
-7.24717000 3.09200000e-03
-7.21717000 3.11387000e-03
-7.18717000 3.14175000e-03
-7.15717000 3.16416000e-03
-7.12717000 3.16821000e-03
-7.09717000 3.17330000e-03
-7.06717000 3.18396000e-03
-7.03717000 3.19765000e-03
-7.00717000 3.21285000e-03
-6.97717000 3.22892000e-03
-6.94717000 3.24556000e-03
-6.91717000 3.26261000e-03
-6.88717000 3.27999000e-03
-6.85717000 3.29767000e-03
-6.82717000 3.31562000e-03
-6.79717000 3.33382000e-03
-6.76717000 3.35227000e-03
-6.73717000 3.37096000e-03
-6.68422000 3.40454000e-03
-6.65422000 3.42391000e-03
-6.62422000 3.44353000e-03
-6.59422000 3.46341000e-03
-6.56422000 3.48356000e-03
-6.53422000 3.50397000e-03
-6.50422000 3.52468000e-03
-6.47422000 3.54568000e-03
-6.44422000 3.56698000e-03
-6.41422000 3.58862000e-03
-6.38422000 3.61059000e-03
-6.35422000 3.63293000e-03
-6.32422000 3.65566000e-03
-6.29422000 3.67881000e-03
-6.26422000 3.70243000e-03
-6.23422000 3.72657000e-03
-6.20422000 3.75131000e-03
-6.17422000 3.77679000e-03
-6.14422000 3.80326000e-03
-6.11422000 3.83104000e-03
-6.08422000 3.85928000e-03
-6.05422000 3.88660000e-03
-6.02422000 3.91505000e-03
-5.99422000 3.94549000e-03
-5.96422000 3.97804000e-03
-5.93422000 4.01302000e-03
-5.90422000 4.05106000e-03
-5.85128000 4.12907000e-03
-5.82128000 4.18275000e-03
-5.79128000 4.24753000e-03
-5.76128000 4.32975000e-03
-5.73128000 4.44107000e-03
-5.70128000 4.60443000e-03
-5.67128000 4.86878000e-03
-5.64128000 5.34508000e-03
-5.61128000 6.26328000e-03
-5.58128000 7.66173000e-03
-5.55128000 7.88688000e-03
-5.52128000 6.73890000e-03
-5.49128000 5.78255000e-03
-5.46128000 5.23529000e-03
-5.43128000 4.96424000e-03
-5.40128000 4.83087000e-03
-5.37128000 4.76670000e-03
-5.34128000 4.74067000e-03
-5.31128000 4.73841000e-03
-5.28128000 4.75348000e-03
-5.25128000 4.77927000e-03
-5.22128000 4.80268000e-03
-5.19128000 4.83016000e-03
-5.16128000 4.86929000e-03
-5.13128000 4.92154000e-03
-5.10128000 4.98060000e-03
-5.07128000 5.02780000e-03
-5.01833000 5.13270000e-03
-4.98833000 5.22135000e-03
-4.95833000 5.34043000e-03
-4.92833000 5.50941000e-03
-4.89833000 5.77099000e-03
-4.86833000 6.22149000e-03
-4.83833000 7.05179000e-03
-4.80833000 8.22465000e-03
-4.77833000 8.40269000e-03
-4.74833000 7.93230000e-03
-4.71833000 8.12158000e-03
-4.68833000 8.77486000e-03
-4.65833000 9.39376000e-03
-4.62833000 8.47120000e-03
-4.59833000 7.30166000e-03
-4.56833000 6.70257000e-03
-4.53833000 6.45869000e-03
-4.50833000 6.41870000e-03
-4.47833000 6.52904000e-03
-4.44833000 6.63893000e-03
-4.41833000 6.60647000e-03
-4.38833000 6.64930000e-03
-4.35833000 6.85181000e-03
-4.32833000 7.27434000e-03
-4.29833000 8.10487000e-03
-4.26833000 9.73556000e-03
-4.23833000 1.19460000e-02
-4.18539000 1.00527000e-02
-4.15539000 8.55138000e-03
-4.12539000 7.79253000e-03
-4.09539000 7.41369000e-03
-4.06539000 7.19432000e-03
-4.03539000 7.08012000e-03
-4.00539000 7.02933000e-03
-3.97539000 7.04321000e-03
-3.94539000 7.11173000e-03
-3.91539000 7.17669000e-03
-3.88539000 7.18386000e-03
-3.85539000 7.19061000e-03
-3.82539000 7.22882000e-03
-3.79539000 7.28882000e-03
-3.76539000 7.36274000e-03
-3.73539000 7.44738000e-03
-3.70539000 7.54206000e-03
-3.67539000 7.64779000e-03
-3.64539000 7.76757000e-03
-3.61539000 7.90752000e-03
-3.58539000 8.07581000e-03
-3.55539000 8.26423000e-03
-3.52539000 8.48082000e-03
-3.49539000 8.79943000e-03
-3.46539000 9.32699000e-03
-3.43539000 1.02418000e-02
-3.40539000 1.13116000e-02
-3.35245000 1.08178000e-02
-3.32245000 1.08019000e-02
-3.29245000 1.15280000e-02
-3.26245000 1.29436000e-02
-3.23245000 1.35303000e-02
-3.20245000 1.30200000e-02
-3.17245000 1.34825000e-02
-3.14245000 1.55637000e-02
-3.11245000 1.80300000e-02
-3.08245000 1.65280000e-02
-3.05245000 1.38376000e-02
-3.02245000 1.24197000e-02
-2.99245000 1.18348000e-02
-2.96245000 1.16855000e-02
-2.93245000 1.18316000e-02
-2.90245000 1.22437000e-02
-2.87245000 1.28473000e-02
-2.84245000 1.34793000e-02
-2.81245000 1.43105000e-02
-2.78245000 1.49749000e-02
-2.75245000 1.42333000e-02
-2.72245000 1.34360000e-02
-2.69245000 1.30780000e-02
-2.66245000 1.30154000e-02
-2.63245000 1.31135000e-02
-2.60245000 1.33121000e-02
-2.57245000 1.35982000e-02
-2.51950000 1.44297000e-02
-2.48950000 1.51963000e-02
-2.45950000 1.57033000e-02
-2.42950000 1.55803000e-02
-2.39950000 1.55560000e-02
-2.36950000 1.57528000e-02
-2.33950000 1.60854000e-02
-2.30950000 1.65118000e-02
-2.27950000 1.70068000e-02
-2.24950000 1.75699000e-02
-2.21950000 1.82533000e-02
-2.18950000 1.90931000e-02
-2.15950000 2.00946000e-02
-2.12950000 2.14470000e-02
-2.09950000 2.35494000e-02
-2.06950000 2.71866000e-02
-2.03950000 3.38811000e-02
-2.00950000 4.27480000e-02
-1.97950000 4.18971000e-02
-1.94950000 3.43855000e-02
-1.91950000 3.01324000e-02
-1.88950000 2.87667000e-02
-1.85950000 2.91197000e-02
-1.82950000 3.01718000e-02
-1.79950000 3.01599000e-02
-1.76950000 3.00101000e-02
-1.73950000 3.05349000e-02
-1.68656000 3.27243000e-02
-1.65656000 3.47622000e-02
-1.62656000 3.77597000e-02
-1.59656000 4.12471000e-02
-1.56656000 4.24461000e-02
-1.53656000 4.29580000e-02
-1.50656000 4.45073000e-02
-1.47656000 4.65584000e-02
-1.44656000 4.93862000e-02
-1.41656000 5.33125000e-02
-1.38656000 5.88061000e-02
-1.35656000 6.70222000e-02
-1.32656000 7.93909000e-02
-1.29656000 9.02140000e-02
-1.26656000 9.20896000e-02
-1.23656000 9.74273000e-02
-1.20656000 1.11313000e-01
-1.17656000 1.28693000e-01
-1.14656000 1.41358000e-01
-1.11656000 1.62988000e-01
-1.08656000 2.05281000e-01
-1.05656000 2.82519000e-01
-1.02656000 4.32247000e-01
-0.99656100 6.97515000e-01
-0.96656100 8.55093000e-01
-0.93656100 6.38329000e-01
-0.90656100 4.38717000e-01
-0.85361700 3.26170000e-01
-0.82361700 3.38184000e-01
-0.79361700 4.06016000e-01
-0.76361700 5.41725000e-01
-0.73361700 6.55849000e-01
-0.70361700 6.13828000e-01
-0.67361700 5.53849000e-01
-0.64361700 5.70042000e-01
-0.61361700 6.69688000e-01
-0.58361700 8.85242000e-01
-0.55361700 1.30423000e+00
-0.52361700 1.96606000e+00
-0.49361700 2.26123000e+00
-0.46361700 2.08133000e+00
-0.43361700 2.22359000e+00
-0.40361700 2.99273000e+00
-0.37361700 4.78432000e+00
-0.34361700 7.59638000e+00
-0.31361700 8.38422000e+00
-0.28361700 7.63924000e+00
-0.25361700 7.54022000e+00
-0.22361700 6.49974000e+00
-0.19361700 5.49156000e+00
-0.16361700 3.71859000e+00
-0.13361700 2.25916000e+00
-0.10361700 1.45759000e+00
-0.07361710 1.01726000e+00
-0.02067360 6.25050000e-01
0.00932644 5.08789000e-01
0.03932640 4.35875000e-01
0.06932640 3.83390000e-01
0.09932640 3.28521000e-01
0.12932600 2.85412000e-01
0.15932600 2.64574000e-01
0.18932600 2.49779000e-01
0.21932600 2.24255000e-01
0.24932600 2.11980000e-01
0.27932600 2.23323000e-01
0.30932600 2.38209000e-01
0.33932600 2.32888000e-01
0.36932600 2.01699000e-01
0.39932600 1.72222000e-01
0.42932600 1.62444000e-01
0.45932600 1.43145000e-01
0.48932600 1.17725000e-01
0.51932600 1.01142000e-01
0.54932600 9.29842000e-02
0.57932600 8.53923000e-02
0.60932600 7.57019000e-02
0.63932600 6.86280000e-02
0.66932600 6.46847000e-02
0.69932600 6.30458000e-02
0.72932600 6.06857000e-02
0.75932600 5.59699000e-02
