# E(MeV)  S_GAMTGAMT(Total=K0+2*K1) for Au215_DDPCX
-7.51717000 9.32194000e-03
-7.48717000 9.02168000e-03
-7.45717000 8.89488000e-03
-7.42717000 8.85011000e-03
-7.39717000 8.83949000e-03
-7.36717000 8.83823000e-03
-7.33717000 8.84746000e-03
-7.30717000 8.86935000e-03
-7.27717000 8.89995000e-03
-7.24717000 8.93710000e-03
-7.21717000 8.98117000e-03
-7.18717000 9.03327000e-03
-7.15717000 9.08144000e-03
-7.12717000 9.11261000e-03
-7.09717000 9.14608000e-03
-7.06717000 9.18654000e-03
-7.03717000 9.23183000e-03
-7.00717000 9.28145000e-03
-6.97717000 9.33708000e-03
-6.94717000 9.40164000e-03
-6.91717000 9.46629000e-03
-6.88717000 9.51753000e-03
-6.85717000 9.58273000e-03
-6.82717000 9.66112000e-03
-6.79717000 9.69484000e-03
-6.76717000 9.70733000e-03
-6.73717000 9.73640000e-03
-6.68422000 9.81308000e-03
-6.65422000 9.86287000e-03
-6.62422000 9.91503000e-03
-6.59422000 9.96891000e-03
-6.56422000 1.00242600e-02
-6.53422000 1.00809500e-02
-6.50422000 1.01390400e-02
-6.47422000 1.01986400e-02
-6.44422000 1.02599800e-02
-6.41422000 1.03235200e-02
-6.38422000 1.03899500e-02
-6.35422000 1.04605700e-02
-6.32422000 1.05377000e-02
-6.29422000 1.06260900e-02
-6.26422000 1.07360500e-02
-6.23422000 1.08909900e-02
-6.20422000 1.11339300e-02
-6.17422000 1.14173100e-02
-6.14422000 1.14041800e-02
-6.11422000 1.12504200e-02
-6.08422000 1.11907200e-02
-6.05422000 1.11973600e-02
-6.02422000 1.12373300e-02
-5.99422000 1.12954300e-02
-5.96422000 1.13648000e-02
-5.93422000 1.14425800e-02
-5.90422000 1.15279000e-02
-5.85128000 1.16987300e-02
-5.82128000 1.18103500e-02
-5.79128000 1.19374700e-02
-5.76128000 1.20872500e-02
-5.73128000 1.22726500e-02
-5.70128000 1.25185300e-02
-5.67128000 1.28767800e-02
-5.64128000 1.34628800e-02
-5.61128000 1.45141200e-02
-5.58128000 1.60812700e-02
-5.55128000 1.65330000e-02
-5.52128000 1.57119800e-02
-5.49128000 1.52643300e-02
-5.46128000 1.55462900e-02
-5.43128000 1.67551400e-02
-5.40128000 1.93195300e-02
-5.37128000 2.26559800e-02
-5.34128000 2.21559300e-02
-5.31128000 1.86525900e-02
-5.28128000 1.64618400e-02
-5.25128000 1.54498900e-02
-5.22128000 1.50288800e-02
-5.19128000 1.48824000e-02
-5.16128000 1.49531900e-02
-5.13128000 1.53546600e-02
-5.10128000 1.62911400e-02
-5.07128000 1.79298200e-02
-5.01833000 1.76563800e-02
-4.98833000 1.63369700e-02
-4.95833000 1.57503100e-02
-4.92833000 1.56269700e-02
-4.89833000 1.58191500e-02
-4.86833000 1.63610500e-02
-4.83833000 1.74142100e-02
-4.80833000 1.89644900e-02
-4.77833000 1.98619700e-02
-4.74833000 1.99554400e-02
-4.71833000 1.98764000e-02
-4.68833000 2.02125000e-02
-4.65833000 2.03869600e-02
-4.62833000 1.91173400e-02
-4.59833000 1.78097600e-02
-4.56833000 1.72047500e-02
-4.53833000 1.70375500e-02
-4.50833000 1.70758000e-02
-4.47833000 1.72261600e-02
-4.44833000 1.74126900e-02
-4.41833000 1.75056100e-02
-4.38833000 1.77224000e-02
-4.35833000 1.81607100e-02
-4.32833000 1.88959000e-02
-4.29833000 2.01159300e-02
-4.26833000 2.23238600e-02
-4.23833000 2.55196800e-02
-4.18539000 2.78381400e-02
-4.15539000 3.12617800e-02
-4.12539000 3.24447300e-02
-4.09539000 2.79920900e-02
-4.06539000 2.45270800e-02
-4.03539000 2.30649600e-02
-4.00539000 2.22500300e-02
-3.97539000 2.13341100e-02
-3.94539000 2.09334100e-02
-3.91539000 2.10543900e-02
-3.88539000 2.12803200e-02
-3.85539000 2.10022900e-02
-3.82539000 2.06627800e-02
-3.79539000 2.05719600e-02
-3.76539000 2.06813000e-02
-3.73539000 2.09026000e-02
-3.70539000 2.10443000e-02
-3.67539000 2.11535900e-02
-3.64539000 2.13493900e-02
-3.61539000 2.16327200e-02
-3.58539000 2.20114500e-02
-3.55539000 2.24836500e-02
-3.52539000 2.29604200e-02
-3.49539000 2.34911300e-02
-3.46539000 2.43775500e-02
-3.43539000 2.59275000e-02
-3.40539000 2.79118200e-02
-3.35245000 2.78381600e-02
-3.32245000 2.82323200e-02
-3.29245000 2.98835400e-02
-3.26245000 3.21235200e-02
-3.23245000 3.41797000e-02
-3.20245000 3.67118000e-02
-3.17245000 4.03471000e-02
-3.14245000 4.37859000e-02
-3.11245000 4.37882000e-02
-3.08245000 3.90064000e-02
-3.05245000 3.45782000e-02
-3.02245000 3.25949000e-02
-2.99245000 3.22996000e-02
-2.96245000 3.34337000e-02
-2.93245000 3.61320000e-02
-2.90245000 3.86697000e-02
-2.87245000 3.90881000e-02
-2.84245000 3.86363000e-02
-2.81245000 3.89881000e-02
-2.78245000 4.05823000e-02
-2.75245000 4.21539000e-02
-2.72245000 4.10700000e-02
-2.69245000 3.83456000e-02
-2.66245000 3.66294000e-02
-2.63245000 3.57667000e-02
-2.60245000 3.55737000e-02
-2.57245000 3.58840000e-02
-2.51950000 3.74061000e-02
-2.48950000 3.85443000e-02
-2.45950000 3.92005000e-02
-2.42950000 3.94079000e-02
-2.39950000 3.98620000e-02
-2.36950000 4.06282000e-02
-2.33950000 4.17338000e-02
-2.30950000 4.29792000e-02
-2.27950000 4.44850000e-02
-2.24950000 4.65859000e-02
-2.21950000 4.94031000e-02
-2.18950000 5.23563000e-02
-2.15950000 5.47876000e-02
-2.12950000 5.79330000e-02
-2.09950000 5.99552000e-02
-2.06950000 6.14658000e-02
-2.03950000 6.70975000e-02
-2.00950000 7.58546000e-02
-1.97950000 7.52803000e-02
-1.94950000 6.83405000e-02
-1.91950000 6.49682000e-02
-1.88950000 6.47629000e-02
-1.85950000 6.65755000e-02
-1.82950000 6.95434000e-02
-1.79950000 7.22779000e-02
-1.76950000 7.65305000e-02
-1.73950000 8.47271000e-02
-1.68656000 9.85057000e-02
-1.65656000 9.38202000e-02
-1.62656000 9.24731000e-02
-1.59656000 9.45199000e-02
-1.56656000 9.59121000e-02
-1.53656000 9.78220000e-02
-1.50656000 1.01528100e-01
-1.47656000 1.06392600e-01
-1.44656000 1.13074200e-01
-1.41656000 1.22407500e-01
-1.38656000 1.34267300e-01
-1.35656000 1.46722000e-01
-1.32656000 1.63907900e-01
-1.29656000 1.82793800e-01
-1.26656000 1.93565400e-01
-1.23656000 2.08120700e-01
-1.20656000 2.36711800e-01
-1.17656000 2.77849000e-01
-1.14656000 3.30948200e-01
-1.11656000 4.24194000e-01
-1.08656000 5.90913000e-01
-1.05656000 8.08983000e-01
-1.02656000 9.14817000e-01
-0.99656100 1.06319100e+00
-0.96656100 1.16588500e+00
-0.93656100 9.25699000e-01
-0.90656100 7.31203000e-01
-0.85361700 7.04426000e-01
-0.82361700 8.23826000e-01
-0.79361700 1.04085600e+00
-0.76361700 1.34441100e+00
-0.73361700 1.72296900e+00
-0.70361700 2.08700400e+00
-0.67361700 2.74406900e+00
-0.64361700 3.17990200e+00
-0.61361700 2.61706800e+00
-0.58361700 2.28278800e+00
-0.55361700 2.59585000e+00
-0.52361700 3.49482200e+00
-0.49361700 4.09184000e+00
-0.46361700 4.05734600e+00
-0.43361700 3.98822600e+00
-0.40361700 4.48688200e+00
-0.37361700 6.16435800e+00
-0.34361700 8.98143400e+00
-0.31361700 9.88389600e+00
-0.28361700 9.15832600e+00
-0.25361700 9.15439200e+00
-0.22361700 8.50320000e+00
-0.19361700 8.28012000e+00
-0.16361700 8.02055000e+00
-0.13361700 8.63908000e+00
-0.10361700 7.40187000e+00
-0.07361710 5.07288000e+00
-0.02067360 3.85853000e+00
0.00932644 4.23766900e+00
0.03932640 4.90983500e+00
0.06932640 6.02737000e+00
0.09932640 7.03422100e+00
0.12932600 7.22211200e+00
0.15932600 7.84987400e+00
0.18932600 7.84285900e+00
0.21932600 5.97079500e+00
0.24932600 4.26418000e+00
0.27932600 3.70680300e+00
0.30932600 3.46666900e+00
0.33932600 3.44698800e+00
0.36932600 3.25407900e+00
0.39932600 2.29852200e+00
0.42932600 1.53968000e+00
0.45932600 1.12066300e+00
0.48932600 8.75317000e-01
0.51932600 7.17390000e-01
0.54932600 6.22018200e-01
0.57932600 5.72604300e-01
0.60932600 5.58931900e-01
0.63932600 5.78568000e-01
0.66932600 6.54984700e-01
0.69932600 8.33085800e-01
0.72932600 1.15237770e+00
0.75932600 1.39397990e+00
