# E(MeV)  S_GAMTGAMT(K=0) for Bi218_DDPCX
-6.22596000 2.45915000e-03
-6.19596000 2.47175000e-03
-6.16596000 2.48440000e-03
-6.13596000 2.49711000e-03
-6.10596000 2.50987000e-03
-6.07596000 2.52270000e-03
-6.04596000 2.53558000e-03
-6.01596000 2.54850000e-03
-5.98596000 2.56147000e-03
-5.95596000 2.57447000e-03
-5.92596000 2.58748000e-03
-5.89596000 2.60047000e-03
-5.86596000 2.61338000e-03
-5.83596000 2.62614000e-03
-5.80596000 2.63858000e-03
-5.77596000 2.65040000e-03
-5.74596000 2.66098000e-03
-5.71596000 2.66896000e-03
-5.68596000 2.67124000e-03
-5.65596000 2.66324000e-03
-5.62596000 2.65842000e-03
-5.59596000 2.68991000e-03
-5.56596000 2.72667000e-03
-5.52214000 2.76277000e-03
-5.49214000 2.78132000e-03
-5.46214000 2.79763000e-03
-5.43214000 2.81247000e-03
-5.40214000 2.82593000e-03
-5.37214000 2.83750000e-03
-5.34214000 2.84578000e-03
-5.31214000 2.84745000e-03
-5.28214000 2.83494000e-03
-5.25214000 2.79905000e-03
-5.22214000 2.78119000e-03
-5.19214000 2.84360000e-03
-5.16214000 2.90777000e-03
-5.13214000 2.94935000e-03
-5.10214000 2.97882000e-03
-5.07214000 3.00273000e-03
-5.04214000 3.02398000e-03
-5.01214000 3.04388000e-03
-4.98214000 3.06307000e-03
-4.95214000 3.08190000e-03
-4.92214000 3.10056000e-03
-4.89214000 3.11916000e-03
-4.86214000 3.13777000e-03
-4.81831000 3.16509000e-03
-4.78831000 3.18392000e-03
-4.75831000 3.20289000e-03
-4.72831000 3.22200000e-03
-4.69831000 3.24128000e-03
-4.66831000 3.26073000e-03
-4.63831000 3.28036000e-03
-4.60831000 3.30019000e-03
-4.57831000 3.32020000e-03
-4.54831000 3.34043000e-03
-4.51831000 3.36086000e-03
-4.48831000 3.38151000e-03
-4.45831000 3.40238000e-03
-4.42831000 3.42348000e-03
-4.39831000 3.44481000e-03
-4.36831000 3.46637000e-03
-4.33831000 3.48819000e-03
-4.30831000 3.51025000e-03
-4.27831000 3.53256000e-03
-4.24831000 3.55513000e-03
-4.21831000 3.57797000e-03
-4.18831000 3.60109000e-03
-4.15831000 3.62448000e-03
-4.11449000 3.65915000e-03
-4.08449000 3.68325000e-03
-4.05449000 3.70765000e-03
-4.02449000 3.73235000e-03
-3.99449000 3.75737000e-03
-3.96449000 3.78270000e-03
-3.93449000 3.80836000e-03
-3.90449000 3.83436000e-03
-3.87449000 3.86069000e-03
-3.84449000 3.88738000e-03
-3.81449000 3.91442000e-03
-3.78449000 3.94183000e-03
-3.75449000 3.96961000e-03
-3.72449000 3.99777000e-03
-3.69449000 4.02633000e-03
-3.66449000 4.05529000e-03
-3.63449000 4.08466000e-03
-3.60449000 4.11445000e-03
-3.57449000 4.14467000e-03
-3.54449000 4.17534000e-03
-3.51449000 4.20646000e-03
-3.48449000 4.23805000e-03
-3.45449000 4.27011000e-03
-3.41067000 4.31784000e-03
-3.38067000 4.35114000e-03
-3.35067000 4.38496000e-03
-3.32067000 4.41932000e-03
-3.29067000 4.45424000e-03
-3.26067000 4.48974000e-03
-3.23067000 4.52582000e-03
-3.20067000 4.56251000e-03
-3.17067000 4.59982000e-03
-3.14067000 4.63779000e-03
-3.11067000 4.67642000e-03
-3.08067000 4.71574000e-03
-3.05067000 4.75578000e-03
-3.02067000 4.79657000e-03
-2.99067000 4.83812000e-03
-2.96067000 4.88048000e-03
-2.93067000 4.92367000e-03
-2.90067000 4.96773000e-03
-2.87067000 5.01270000e-03
-2.84067000 5.05862000e-03
-2.81067000 5.10555000e-03
-2.78067000 5.15353000e-03
-2.75067000 5.20263000e-03
-2.70684000 5.27650000e-03
-2.67684000 5.32866000e-03
-2.64684000 5.38223000e-03
-2.61684000 5.43732000e-03
-2.58684000 5.49406000e-03
-2.55684000 5.55264000e-03
-2.52684000 5.61325000e-03
-2.49684000 5.67616000e-03
-2.46684000 5.74169000e-03
-2.43684000 5.81027000e-03
-2.40684000 5.88246000e-03
-2.37684000 5.95903000e-03
-2.34684000 6.04102000e-03
-2.31684000 6.12994000e-03
-2.28684000 6.22799000e-03
-2.25684000 6.33853000e-03
-2.22684000 6.46689000e-03
-2.19684000 6.62190000e-03
-2.16684000 6.81910000e-03
-2.13684000 7.08754000e-03
-2.10684000 7.48594000e-03
-2.07684000 8.14243000e-03
-2.04684000 9.34925000e-03
-2.00302000 1.30511000e-02
-1.97302000 1.44896000e-02
-1.94302000 1.20392000e-02
-1.91302000 9.84687000e-03
-1.88302000 8.76829000e-03
-1.85302000 8.26937000e-03
-1.82302000 8.04347000e-03
-1.79302000 7.95645000e-03
-1.76302000 7.94779000e-03
-1.73302000 7.98840000e-03
-1.70302000 8.06374000e-03
-1.67302000 8.16669000e-03
-1.64302000 8.29449000e-03
-1.61302000 8.44740000e-03
-1.58302000 8.62840000e-03
-1.55302000 8.84358000e-03
-1.52302000 9.10330000e-03
-1.49302000 9.42469000e-03
-1.46302000 9.83638000e-03
-1.43302000 1.03882000e-02
-1.40302000 1.11717000e-02
-1.37302000 1.23670000e-02
-1.34302000 1.43569000e-02
-1.29920000 2.07209000e-02
-1.26920000 3.01887000e-02
-1.23920000 4.01769000e-02
-1.20920000 3.44145000e-02
-1.17920000 2.40169000e-02
-1.14920000 1.84751000e-02
-1.11920000 1.62258000e-02
-1.08920000 1.56090000e-02
-1.05920000 1.47152000e-02
-1.02920000 1.34622000e-02
-0.99919900 1.27259000e-02
-0.96919900 1.23832000e-02
-0.93919900 1.22509000e-02
-0.90919900 1.22373000e-02
-0.87919900 1.22979000e-02
-0.84919900 1.24093000e-02
-0.81919900 1.25583000e-02
-0.78919900 1.27373000e-02
-0.75919900 1.29412000e-02
-0.72919900 1.31672000e-02
-0.69919900 1.34135000e-02
-0.66919900 1.36789000e-02
-0.63919900 1.39630000e-02
-0.59537600 1.44117000e-02
-0.56537600 1.47425000e-02
-0.53537600 1.50931000e-02
-0.50537600 1.54646000e-02
-0.47537600 1.58582000e-02
-0.44537600 1.62755000e-02
-0.41537600 1.67183000e-02
-0.38537600 1.71887000e-02
-0.35537600 1.76895000e-02
-0.32537600 1.82238000e-02
-0.29537600 1.87956000e-02
-0.26537600 1.94098000e-02
-0.23537600 2.00727000e-02
-0.20537600 2.07925000e-02
-0.17537600 2.15803000e-02
-0.14537600 2.24516000e-02
-0.11537600 2.34289000e-02
-0.08537570 2.45469000e-02
-0.05537570 2.58615000e-02
-0.02537570 2.74691000e-02
0.00462431 2.95483000e-02
0.03462430 3.24587000e-02
0.06462430 3.69855000e-02
0.10844700 5.05549000e-02
0.13844700 6.73466000e-02
0.16844700 7.34331000e-02
0.19844700 6.00402000e-02
0.22844700 5.00199000e-02
0.25844700 4.59703000e-02
0.28844700 4.50299000e-02
0.31844700 4.57076000e-02
0.34844700 4.73949000e-02
0.37844700 4.98770000e-02
0.40844700 5.31452000e-02
0.43844700 5.73529000e-02
0.46844700 6.28654000e-02
0.49844700 7.04382000e-02
0.52844700 8.16842000e-02
0.55844700 1.00237000e-01
0.58844700 1.33583000e-01
0.61844700 1.82786000e-01
0.64844700 1.92213000e-01
0.67844700 1.56721000e-01
0.70844700 1.36062000e-01
0.73844700 1.32156000e-01
0.76844700 1.37985000e-01
