# E(MeV)  S_GAMTGAMT(K=1) for Bi218_DDPCX
-6.22596000 2.30540000e-03
-6.19596000 2.31987000e-03
-6.16596000 2.33427000e-03
-6.13596000 2.34723000e-03
-6.10596000 2.35942000e-03
-6.07596000 2.37123000e-03
-6.04596000 2.38278000e-03
-6.01596000 2.39407000e-03
-5.98596000 2.40495000e-03
-5.95596000 2.41508000e-03
-5.92596000 2.42360000e-03
-5.89596000 2.42867000e-03
-5.86596000 2.42913000e-03
-5.83596000 2.43789000e-03
-5.80596000 2.46143000e-03
-5.77596000 2.48250000e-03
-5.74596000 2.49914000e-03
-5.71596000 2.51336000e-03
-5.68596000 2.52635000e-03
-5.65596000 2.53988000e-03
-5.62596000 2.55415000e-03
-5.59596000 2.56802000e-03
-5.56596000 2.58157000e-03
-5.52214000 2.60118000e-03
-5.49214000 2.61460000e-03
-5.46214000 2.62806000e-03
-5.43214000 2.64159000e-03
-5.40214000 2.65520000e-03
-5.37214000 2.66889000e-03
-5.34214000 2.68268000e-03
-5.31214000 2.69657000e-03
-5.28214000 2.71055000e-03
-5.25214000 2.72465000e-03
-5.22214000 2.73885000e-03
-5.19214000 2.75317000e-03
-5.16214000 2.76760000e-03
-5.13214000 2.78215000e-03
-5.10214000 2.79682000e-03
-5.07214000 2.81161000e-03
-5.04214000 2.82653000e-03
-5.01214000 2.84157000e-03
-4.98214000 2.85675000e-03
-4.95214000 2.87205000e-03
-4.92214000 2.88749000e-03
-4.89214000 2.90307000e-03
-4.86214000 2.91879000e-03
-4.81831000 2.94201000e-03
-4.78831000 2.95808000e-03
-4.75831000 2.97430000e-03
-4.72831000 2.99067000e-03
-4.69831000 3.00719000e-03
-4.66831000 3.02387000e-03
-4.63831000 3.04070000e-03
-4.60831000 3.05770000e-03
-4.57831000 3.07485000e-03
-4.54831000 3.09216000e-03
-4.51831000 3.10962000e-03
-4.48831000 3.12722000e-03
-4.45831000 3.14493000e-03
-4.42831000 3.16266000e-03
-4.39831000 3.18027000e-03
-4.36831000 3.19787000e-03
-4.33831000 3.21672000e-03
-4.30831000 3.23639000e-03
-4.27831000 3.25591000e-03
-4.24831000 3.27539000e-03
-4.21831000 3.29495000e-03
-4.18831000 3.31467000e-03
-4.15831000 3.33457000e-03
-4.11449000 3.36401000e-03
-4.08449000 3.38443000e-03
-4.05449000 3.40507000e-03
-4.02449000 3.42595000e-03
-3.99449000 3.44706000e-03
-3.96449000 3.46842000e-03
-3.93449000 3.49002000e-03
-3.90449000 3.51188000e-03
-3.87449000 3.53400000e-03
-3.84449000 3.55638000e-03
-3.81449000 3.57904000e-03
-3.78449000 3.60197000e-03
-3.75449000 3.62518000e-03
-3.72449000 3.64868000e-03
-3.69449000 3.67248000e-03
-3.66449000 3.69658000e-03
-3.63449000 3.72098000e-03
-3.60449000 3.74571000e-03
-3.57449000 3.77075000e-03
-3.54449000 3.79613000e-03
-3.51449000 3.82184000e-03
-3.48449000 3.84790000e-03
-3.45449000 3.87432000e-03
-3.41067000 3.91356000e-03
-3.38067000 3.94088000e-03
-3.35067000 3.96859000e-03
-3.32067000 3.99670000e-03
-3.29067000 4.02521000e-03
-3.26067000 4.05414000e-03
-3.23067000 4.08350000e-03
-3.20067000 4.11330000e-03
-3.17067000 4.14355000e-03
-3.14067000 4.17426000e-03
-3.11067000 4.20546000e-03
-3.08067000 4.23715000e-03
-3.05067000 4.26935000e-03
-3.02067000 4.30208000e-03
-2.99067000 4.33535000e-03
-2.96067000 4.36918000e-03
-2.93067000 4.40359000e-03
-2.90067000 4.43860000e-03
-2.87067000 4.47425000e-03
-2.84067000 4.51054000e-03
-2.81067000 4.54751000e-03
-2.78067000 4.58518000e-03
-2.75067000 4.62360000e-03
-2.70684000 4.68113000e-03
-2.67684000 4.72153000e-03
-2.64684000 4.76282000e-03
-2.61684000 4.80505000e-03
-2.58684000 4.84828000e-03
-2.55684000 4.89259000e-03
-2.52684000 4.93806000e-03
-2.49684000 4.98480000e-03
-2.46684000 5.03292000e-03
-2.43684000 5.08258000e-03
-2.40684000 5.13397000e-03
-2.37684000 5.18731000e-03
-2.34684000 5.24290000e-03
-2.31684000 5.30113000e-03
-2.28684000 5.36253000e-03
-2.25684000 5.42779000e-03
-2.22684000 5.49789000e-03
-2.19684000 5.57426000e-03
-2.16684000 5.65900000e-03
-2.13684000 5.75533000e-03
-2.10684000 5.86848000e-03
-2.07684000 6.00722000e-03
-2.04684000 6.18734000e-03
-2.00302000 6.59463000e-03
-1.97302000 7.08301000e-03
-1.94302000 7.96326000e-03
-1.91302000 9.64284000e-03
-1.88302000 1.19555000e-02
-1.85302000 1.17173000e-02
-1.82302000 9.55332000e-03
-1.79302000 8.23217000e-03
-1.76302000 7.64454000e-03
-1.73302000 7.42736000e-03
-1.70302000 7.42668000e-03
-1.67302000 7.61578000e-03
-1.64302000 8.04340000e-03
-1.61302000 8.58267000e-03
-1.58302000 8.82227000e-03
-1.55302000 9.34035000e-03
-1.52302000 1.07930000e-02
-1.49302000 1.30019000e-02
-1.46302000 1.28008000e-02
-1.43302000 1.06147000e-02
-1.40302000 9.24946000e-03
-1.37302000 8.61928000e-03
-1.34302000 8.34659000e-03
-1.29920000 8.24832000e-03
-1.26920000 8.30029000e-03
-1.23920000 8.43616000e-03
-1.20920000 8.68686000e-03
-1.17920000 9.14458000e-03
-1.14920000 9.91461000e-03
-1.11920000 1.04137000e-02
-1.08920000 9.92880000e-03
-1.05920000 9.48087000e-03
-1.02920000 9.33080000e-03
-0.99919900 9.34812000e-03
-0.96919900 9.45802000e-03
-0.93919900 9.63415000e-03
-0.90919900 9.87620000e-03
-0.87919900 1.02062000e-02
-0.84919900 1.06810000e-02
-0.81919900 1.14210000e-02
-0.78919900 1.25485000e-02
-0.75919900 1.37994000e-02
-0.72919900 1.56750000e-02
-0.69919900 1.91932000e-02
-0.66919900 2.07174000e-02
-0.63919900 1.74138000e-02
-0.59537600 1.39700000e-02
-0.56537600 1.30995000e-02
-0.53537600 1.27519000e-02
-0.50537600 1.26623000e-02
-0.47537600 1.27141000e-02
-0.44537600 1.28528000e-02
-0.41537600 1.30514000e-02
-0.38537600 1.32965000e-02
-0.35537600 1.35821000e-02
-0.32537600 1.39069000e-02
-0.29537600 1.42742000e-02
-0.26537600 1.46917000e-02
-0.23537600 1.51752000e-02
-0.20537600 1.57545000e-02
-0.17537600 1.64882000e-02
-0.14537600 1.75018000e-02
-0.11537600 1.90789000e-02
-0.08537570 2.18112000e-02
-0.05537570 2.58349000e-02
-0.02537570 2.67546000e-02
0.00462431 2.38502000e-02
0.03462430 2.20133000e-02
0.06462430 2.14422000e-02
0.10844700 2.16730000e-02
0.13844700 2.21888000e-02
0.16844700 2.28809000e-02
0.19844700 2.37147000e-02
0.22844700 2.46810000e-02
0.25844700 2.57866000e-02
0.28844700 2.70522000e-02
0.31844700 2.85167000e-02
0.34844700 3.02491000e-02
0.37844700 3.23785000e-02
0.40844700 3.51687000e-02
0.43844700 3.91891000e-02
0.46844700 4.53825000e-02
0.49844700 5.21923000e-02
0.52844700 5.31706000e-02
0.55844700 5.32837000e-02
0.58844700 5.70510000e-02
0.61844700 6.53014000e-02
0.64844700 7.98013000e-02
0.67844700 9.56044000e-02
0.70844700 9.77835000e-02
0.73844700 1.01079000e-01
0.76844700 1.17585000e-01
