# E(MeV)  S_GAMTGAMT(Total=K0+2*K1) for Bi218_DDPCX
-6.22596000 7.06995000e-03
-6.19596000 7.11149000e-03
-6.16596000 7.15294000e-03
-6.13596000 7.19157000e-03
-6.10596000 7.22871000e-03
-6.07596000 7.26516000e-03
-6.04596000 7.30114000e-03
-6.01596000 7.33664000e-03
-5.98596000 7.37137000e-03
-5.95596000 7.40463000e-03
-5.92596000 7.43468000e-03
-5.89596000 7.45781000e-03
-5.86596000 7.47164000e-03
-5.83596000 7.50192000e-03
-5.80596000 7.56144000e-03
-5.77596000 7.61540000e-03
-5.74596000 7.65926000e-03
-5.71596000 7.69568000e-03
-5.68596000 7.72394000e-03
-5.65596000 7.74300000e-03
-5.62596000 7.76672000e-03
-5.59596000 7.82595000e-03
-5.56596000 7.88981000e-03
-5.52214000 7.96513000e-03
-5.49214000 8.01052000e-03
-5.46214000 8.05375000e-03
-5.43214000 8.09565000e-03
-5.40214000 8.13633000e-03
-5.37214000 8.17528000e-03
-5.34214000 8.21114000e-03
-5.31214000 8.24059000e-03
-5.28214000 8.25604000e-03
-5.25214000 8.24835000e-03
-5.22214000 8.25889000e-03
-5.19214000 8.34994000e-03
-5.16214000 8.44297000e-03
-5.13214000 8.51365000e-03
-5.10214000 8.57246000e-03
-5.07214000 8.62595000e-03
-5.04214000 8.67704000e-03
-5.01214000 8.72702000e-03
-4.98214000 8.77657000e-03
-4.95214000 8.82600000e-03
-4.92214000 8.87554000e-03
-4.89214000 8.92530000e-03
-4.86214000 8.97535000e-03
-4.81831000 9.04911000e-03
-4.78831000 9.10008000e-03
-4.75831000 9.15149000e-03
-4.72831000 9.20334000e-03
-4.69831000 9.25566000e-03
-4.66831000 9.30847000e-03
-4.63831000 9.36176000e-03
-4.60831000 9.41559000e-03
-4.57831000 9.46990000e-03
-4.54831000 9.52475000e-03
-4.51831000 9.58010000e-03
-4.48831000 9.63595000e-03
-4.45831000 9.69224000e-03
-4.42831000 9.74880000e-03
-4.39831000 9.80535000e-03
-4.36831000 9.86211000e-03
-4.33831000 9.92163000e-03
-4.30831000 9.98303000e-03
-4.27831000 1.00443800e-02
-4.24831000 1.01059100e-02
-4.21831000 1.01678700e-02
-4.18831000 1.02304300e-02
-4.15831000 1.02936200e-02
-4.11449000 1.03871700e-02
-4.08449000 1.04521100e-02
-4.05449000 1.05177900e-02
-4.02449000 1.05842500e-02
-3.99449000 1.06514900e-02
-3.96449000 1.07195400e-02
-3.93449000 1.07884000e-02
-3.90449000 1.08581200e-02
-3.87449000 1.09286900e-02
-3.84449000 1.10001400e-02
-3.81449000 1.10725000e-02
-3.78449000 1.11457700e-02
-3.75449000 1.12199700e-02
-3.72449000 1.12951300e-02
-3.69449000 1.13712900e-02
-3.66449000 1.14484500e-02
-3.63449000 1.15266200e-02
-3.60449000 1.16058700e-02
-3.57449000 1.16861700e-02
-3.54449000 1.17676000e-02
-3.51449000 1.18501400e-02
-3.48449000 1.19338500e-02
-3.45449000 1.20187500e-02
-3.41067000 1.21449600e-02
-3.38067000 1.22329000e-02
-3.35067000 1.23221400e-02
-3.32067000 1.24127200e-02
-3.29067000 1.25046600e-02
-3.26067000 1.25980200e-02
-3.23067000 1.26928200e-02
-3.20067000 1.27891100e-02
-3.17067000 1.28869200e-02
-3.14067000 1.29863100e-02
-3.11067000 1.30873400e-02
-3.08067000 1.31900400e-02
-3.05067000 1.32944800e-02
-3.02067000 1.34007300e-02
-2.99067000 1.35088200e-02
-2.96067000 1.36188400e-02
-2.93067000 1.37308500e-02
-2.90067000 1.38449300e-02
-2.87067000 1.39612000e-02
-2.84067000 1.40797000e-02
-2.81067000 1.42005700e-02
-2.78067000 1.43238900e-02
-2.75067000 1.44498300e-02
-2.70684000 1.46387600e-02
-2.67684000 1.47717200e-02
-2.64684000 1.49078700e-02
-2.61684000 1.50474200e-02
-2.58684000 1.51906200e-02
-2.55684000 1.53378200e-02
-2.52684000 1.54893700e-02
-2.49684000 1.56457600e-02
-2.46684000 1.58075300e-02
-2.43684000 1.59754300e-02
-2.40684000 1.61504000e-02
-2.37684000 1.63336500e-02
-2.34684000 1.65268200e-02
-2.31684000 1.67322000e-02
-2.28684000 1.69530500e-02
-2.25684000 1.71941100e-02
-2.22684000 1.74626700e-02
-2.19684000 1.77704200e-02
-2.16684000 1.81371000e-02
-2.13684000 1.85982000e-02
-2.10684000 1.92229000e-02
-2.07684000 2.01568700e-02
-2.04684000 2.17239300e-02
-2.00302000 2.62403600e-02
-1.97302000 2.86556200e-02
-1.94302000 2.79657200e-02
-1.91302000 2.91325500e-02
-1.88302000 3.26792900e-02
-1.85302000 3.17039700e-02
-1.82302000 2.71501100e-02
-1.79302000 2.44207900e-02
-1.76302000 2.32368700e-02
-1.73302000 2.28431200e-02
-1.70302000 2.29171000e-02
-1.67302000 2.33982500e-02
-1.64302000 2.43812900e-02
-1.61302000 2.56127400e-02
-1.58302000 2.62729400e-02
-1.55302000 2.75242800e-02
-1.52302000 3.06893000e-02
-1.49302000 3.54284900e-02
-1.46302000 3.54379800e-02
-1.43302000 3.16176000e-02
-1.40302000 2.96706200e-02
-1.37302000 2.96055600e-02
-1.34302000 3.10500800e-02
-1.29920000 3.72175400e-02
-1.26920000 4.67892800e-02
-1.23920000 5.70492200e-02
-1.20920000 5.17882200e-02
-1.17920000 4.23060600e-02
-1.14920000 3.83043200e-02
-1.11920000 3.70532000e-02
-1.08920000 3.54666000e-02
-1.05920000 3.36769400e-02
-1.02920000 3.21238000e-02
-0.99919900 3.14221400e-02
-0.96919900 3.12992400e-02
-0.93919900 3.15192000e-02
-0.90919900 3.19897000e-02
-0.87919900 3.27103000e-02
-0.84919900 3.37713000e-02
-0.81919900 3.54003000e-02
-0.78919900 3.78343000e-02
-0.75919900 4.05400000e-02
-0.72919900 4.45172000e-02
-0.69919900 5.17999000e-02
-0.66919900 5.51137000e-02
-0.63919900 4.87906000e-02
-0.59537600 4.23517000e-02
-0.56537600 4.09415000e-02
-0.53537600 4.05969000e-02
-0.50537600 4.07892000e-02
-0.47537600 4.12864000e-02
-0.44537600 4.19811000e-02
-0.41537600 4.28211000e-02
-0.38537600 4.37817000e-02
-0.35537600 4.48537000e-02
-0.32537600 4.60376000e-02
-0.29537600 4.73440000e-02
-0.26537600 4.87932000e-02
-0.23537600 5.04231000e-02
-0.20537600 5.23015000e-02
-0.17537600 5.45567000e-02
-0.14537600 5.74552000e-02
-0.11537600 6.15867000e-02
-0.08537570 6.81693000e-02
-0.05537570 7.75313000e-02
-0.02537570 8.09783000e-02
0.00462431 7.72487000e-02
0.03462430 7.64853000e-02
0.06462430 7.98699000e-02
0.10844700 9.39009000e-02
0.13844700 1.11724200e-01
0.16844700 1.19194900e-01
0.19844700 1.07469600e-01
0.22844700 9.93819000e-02
0.25844700 9.75435000e-02
0.28844700 9.91343000e-02
0.31844700 1.02741000e-01
0.34844700 1.07893100e-01
0.37844700 1.14634000e-01
0.40844700 1.23482600e-01
0.43844700 1.35731100e-01
0.46844700 1.53630400e-01
0.49844700 1.74822800e-01
0.52844700 1.88025400e-01
0.55844700 2.06804400e-01
0.58844700 2.47685000e-01
0.61844700 3.13388800e-01
0.64844700 3.51815600e-01
0.67844700 3.47929800e-01
0.70844700 3.31629000e-01
0.73844700 3.34314000e-01
0.76844700 3.73155000e-01
