# E(MeV)  S_GAMTGAMT(Total=K0+2*K1) for Bi226_DDPCX
-8.47249000 5.24326000e-03
-8.44249000 5.34431000e-03
-8.41249000 4.97413000e-03
-8.38249000 4.70527000e-03
-8.35249000 5.34062000e-03
-8.32249000 6.06000000e-03
-8.29249000 6.47471000e-03
-8.26249000 6.70283000e-03
-8.23249000 6.83427000e-03
-8.20249000 6.90456000e-03
-8.17249000 6.95255000e-03
-8.14249000 7.04422000e-03
-8.11249000 7.13697000e-03
-8.08249000 7.20963000e-03
-8.05249000 7.27221000e-03
-8.02249000 7.32580000e-03
-7.99249000 7.37320000e-03
-7.96249000 7.41659000e-03
-7.93249000 7.45705000e-03
-7.90249000 7.49499000e-03
-7.87249000 7.53032000e-03
-7.84249000 7.56237000e-03
-7.81249000 7.58964000e-03
-7.78249000 7.60882000e-03
-7.75249000 7.61258000e-03
-7.72249000 7.58436000e-03
-7.69249000 7.49732000e-03
-7.66249000 7.39772000e-03
-7.63249000 7.42696000e-03
-7.60249000 7.47962000e-03
-7.54401000 7.79021000e-03
-7.51401000 7.90268000e-03
-7.48401000 7.97716000e-03
-7.45401000 8.03081000e-03
-7.42401000 8.06922000e-03
-7.39401000 8.10170000e-03
-7.36401000 8.15493000e-03
-7.33401000 8.21468000e-03
-7.30401000 8.26646000e-03
-7.27401000 8.31310000e-03
-7.24401000 8.35727000e-03
-7.21401000 8.40025000e-03
-7.18401000 8.44263000e-03
-7.15401000 8.48473000e-03
-7.12401000 8.52671000e-03
-7.09401000 8.56871000e-03
-7.06401000 8.61080000e-03
-7.03401000 8.65302000e-03
-7.00401000 8.69541000e-03
-6.97401000 8.73801000e-03
-6.94401000 8.78084000e-03
-6.91401000 8.82391000e-03
-6.88401000 8.86724000e-03
-6.85401000 8.91086000e-03
-6.82401000 8.95477000e-03
-6.79401000 8.99901000e-03
-6.76401000 9.04358000e-03
-6.73401000 9.08850000e-03
-6.70401000 9.13382000e-03
-6.67401000 9.17958000e-03
-6.61553000 9.27043000e-03
-6.58553000 9.31836000e-03
-6.55553000 9.36802000e-03
-6.52553000 9.42097000e-03
-6.49553000 9.47960000e-03
-6.46553000 9.53620000e-03
-6.43553000 9.57260000e-03
-6.40553000 9.60595000e-03
-6.37553000 9.64857000e-03
-6.34553000 9.69633000e-03
-6.31553000 9.74457000e-03
-6.28553000 9.79271000e-03
-6.25553000 9.84066000e-03
-6.22553000 9.88815000e-03
-6.19553000 9.93474000e-03
-6.16553000 9.97983000e-03
-6.13553000 1.00223400e-02
-6.10553000 1.00604600e-02
-6.07553000 1.00910900e-02
-6.04553000 1.01080200e-02
-6.01553000 1.00936600e-02
-5.98553000 9.97551000e-03
-5.95553000 9.66694000e-03
-5.92553000 9.38289000e-03
-5.89553000 9.62726000e-03
-5.86553000 1.00727300e-02
-5.83553000 1.03552900e-02
-5.80553000 1.05276700e-02
-5.77553000 1.06489000e-02
-5.74553000 1.07458900e-02
-5.68706000 1.09050600e-02
-5.65706000 1.09798900e-02
-5.62706000 1.10527500e-02
-5.59706000 1.11246300e-02
-5.56706000 1.11961500e-02
-5.53706000 1.12677200e-02
-5.50706000 1.13396300e-02
-5.47706000 1.14121100e-02
-5.44706000 1.14853300e-02
-5.41706000 1.15594400e-02
-5.38706000 1.16345200e-02
-5.35706000 1.17107300e-02
-5.32706000 1.17881700e-02
-5.29706000 1.18669800e-02
-5.26706000 1.19473100e-02
-5.23706000 1.20293200e-02
-5.20706000 1.21132200e-02
-5.17706000 1.21993000e-02
-5.14706000 1.22879200e-02
-5.11706000 1.23796200e-02
-5.08706000 1.24752000e-02
-5.05706000 1.25760700e-02
-5.02706000 1.26843400e-02
-4.99706000 1.28008900e-02
-4.96706000 1.29253600e-02
-4.93706000 1.30698900e-02
-4.90706000 1.32537800e-02
-4.87706000 1.35136500e-02
-4.84706000 1.39328900e-02
-4.81706000 1.46322300e-02
-4.75858000 1.49136700e-02
-4.72858000 1.44147800e-02
-4.69858000 1.42000100e-02
-4.66858000 1.41574700e-02
-4.63858000 1.41991600e-02
-4.60858000 1.42865100e-02
-4.57858000 1.44035300e-02
-4.54858000 1.45445400e-02
-4.51858000 1.47096100e-02
-4.48858000 1.49038100e-02
-4.45858000 1.51391200e-02
-4.42858000 1.54402700e-02
-4.39858000 1.58601800e-02
-4.36858000 1.65181700e-02
-4.33858000 1.76705400e-02
-4.30858000 1.94884500e-02
-4.27858000 2.02829800e-02
-4.24858000 1.89993900e-02
-4.21858000 1.80019900e-02
-4.18858000 1.76710100e-02
-4.15858000 1.77288700e-02
-4.12858000 1.80577400e-02
-4.09858000 1.86877100e-02
-4.06858000 1.98153000e-02
-4.03858000 2.17666100e-02
-4.00858000 2.37301300e-02
-3.97858000 2.33509500e-02
-3.94858000 2.22226800e-02
-3.91858000 2.20484200e-02
-3.88858000 2.25768400e-02
-3.83011000 2.46723300e-02
-3.80011000 2.69938700e-02
-3.77011000 3.09603500e-02
-3.74011000 3.81905700e-02
-3.71011000 5.17546000e-02
-3.68011000 6.93230000e-02
-3.65011000 6.79522000e-02
-3.62011000 5.68277000e-02
-3.59011000 5.53574000e-02
-3.56011000 6.30069000e-02
-3.53011000 7.75576000e-02
-3.50011000 1.08004400e-01
-3.47011000 1.51614600e-01
-3.44011000 1.62698000e-01
-3.41011000 1.40794200e-01
-3.38011000 9.66234000e-02
-3.35011000 6.53362000e-02
-3.32011000 4.92690000e-02
-3.29011000 4.09432000e-02
-3.26011000 3.64207000e-02
-3.23011000 3.39538000e-02
-3.20011000 3.27477000e-02
-3.17011000 3.24473000e-02
-3.14011000 3.29448000e-02
-3.11011000 3.43377000e-02
-3.08011000 3.69792000e-02
-3.05011000 4.13819000e-02
-3.02011000 4.75831000e-02
-2.99011000 5.62711000e-02
-2.96011000 7.25599000e-02
-2.90163000 1.57773800e-01
-2.87163000 1.71672100e-01
-2.84163000 1.29050800e-01
-2.81163000 9.28249000e-02
-2.78163000 6.98678000e-02
-2.75163000 5.61994000e-02
-2.72163000 4.88799000e-02
-2.69163000 4.56947000e-02
-2.66163000 4.53220000e-02
-2.63163000 4.70916000e-02
-2.60163000 4.85136000e-02
-2.57163000 4.84697000e-02
-2.54163000 5.05491000e-02
-2.51163000 5.60105000e-02
-2.48163000 6.08976000e-02
-2.45163000 6.17524000e-02
-2.42163000 6.47363000e-02
-2.39163000 7.29710000e-02
-2.36163000 8.86786000e-02
-2.33163000 1.16999500e-01
-2.30163000 1.60052000e-01
-2.27163000 1.90197000e-01
-2.24163000 2.22617200e-01
-2.21163000 3.14560600e-01
-2.18163000 4.87835600e-01
-2.15163000 5.56458200e-01
-2.12163000 4.02006600e-01
-2.09163000 2.78826200e-01
-2.06163000 2.06159600e-01
-2.03163000 1.69079200e-01
-1.97316000 1.97471400e-01
-1.94316000 2.59318400e-01
-1.91316000 2.68988600e-01
-1.88316000 2.25363000e-01
-1.85316000 2.21694800e-01
-1.82316000 2.68448000e-01
-1.79316000 3.61043800e-01
-1.76316000 4.85171500e-01
-1.73316000 4.34664300e-01
-1.70316000 2.81085400e-01
-1.67316000 1.89691100e-01
-1.64316000 1.50056000e-01
-1.61316000 1.38628400e-01
-1.58316000 1.31675300e-01
-1.55316000 1.14602100e-01
-1.52316000 9.82809000e-02
-1.49316000 8.87008000e-02
-1.46316000 8.41712000e-02
-1.43316000 8.33671000e-02
-1.40316000 8.55647000e-02
-1.37316000 9.04587000e-02
-1.34316000 9.63695000e-02
-1.31316000 1.02678700e-01
-1.28316000 1.12614600e-01
-1.25316000 1.29975600e-01
-1.22316000 1.57939900e-01
-1.19316000 1.96591600e-01
-1.16316000 2.53506400e-01
-1.13316000 3.56816000e-01
-1.10316000 5.60964000e-01
-1.04468000 7.30760000e-01
-1.01468000 4.92278000e-01
-0.98468100 3.37499600e-01
-0.95468100 2.64965000e-01
-0.92468100 2.35071000e-01
-0.89468100 2.28572800e-01
-0.86468100 2.39398200e-01
-0.83468100 2.66455400e-01
-0.80468100 3.12426400e-01
-0.77468100 3.83545400e-01
-0.74468100 4.97136800e-01
-0.71468100 6.94336200e-01
-0.68468100 1.05273000e+00
-0.65468100 1.72854600e+00
-0.62468100 2.88025400e+00
-0.59468100 3.60832800e+00
-0.56468100 3.26533400e+00
-0.53468100 2.44601400e+00
-0.50468100 1.52134300e+00
-0.47468100 9.99652000e-01
-0.44468100 7.61565000e-01
-0.41468100 6.57665000e-01
-0.38468100 6.05343000e-01
-0.35468100 6.31643000e-01
-0.32468100 8.00449000e-01
-0.29468100 1.12717000e+00
-0.26468100 1.28939000e+00
-0.23468100 1.09599800e+00
-0.20468100 8.04834000e-01
-0.17468100 6.76045000e-01
-0.11620600 8.02689000e-01
-0.08620550 7.94680000e-01
-0.05620550 6.14909000e-01
-0.02620550 4.71827000e-01
0.00379449 4.01699200e-01
0.03379450 3.74363000e-01
0.06379450 3.72058400e-01
0.09379450 3.92084000e-01
0.12379400 4.46358200e-01
0.15379400 5.49881400e-01
0.18379400 7.37108600e-01
0.21379400 1.08596300e+00
0.24379400 1.76795080e+00
0.27379400 2.90631900e+00
0.30379400 3.87445040e+00
0.33379400 3.16907540e+00
0.36379400 1.87992360e+00
0.39379400 1.14350460e+00
0.42379400 7.79012000e-01
0.45379400 5.91990400e-01
0.48379400 4.93940600e-01
0.51379400 4.46445600e-01
0.54379400 4.32384200e-01
0.57379400 4.33044000e-01
0.60379400 4.31520000e-01
0.63379400 4.44374000e-01
0.66379400 4.79999000e-01
0.69379400 5.38605000e-01
0.72379400 6.18880000e-01
0.75379400 7.10197000e-01
