# E(MeV)  S_GAMTGAMT(K=0) for Bi226_DDPCX
-8.47249000 2.20214000e-03
-8.44249000 2.13657000e-03
-8.41249000 1.98799000e-03
-8.38249000 1.78227000e-03
-8.35249000 1.84544000e-03
-8.32249000 2.08570000e-03
-8.29249000 2.23911000e-03
-8.26249000 2.32249000e-03
-8.23249000 2.37261000e-03
-8.20249000 2.40670000e-03
-8.17249000 2.43219000e-03
-8.14249000 2.45228000e-03
-8.11249000 2.46853000e-03
-8.08249000 2.48483000e-03
-8.05249000 2.50337000e-03
-8.02249000 2.52058000e-03
-7.99249000 2.53622000e-03
-7.96249000 2.55093000e-03
-7.93249000 2.56509000e-03
-7.90249000 2.57887000e-03
-7.87249000 2.59238000e-03
-7.84249000 2.60563000e-03
-7.81249000 2.61864000e-03
-7.78249000 2.63134000e-03
-7.75249000 2.64358000e-03
-7.72249000 2.65502000e-03
-7.69249000 2.66492000e-03
-7.66249000 2.67154000e-03
-7.63249000 2.67162000e-03
-7.60249000 2.66846000e-03
-7.54401000 2.71715000e-03
-7.51401000 2.74134000e-03
-7.48401000 2.76030000e-03
-7.45401000 2.77681000e-03
-7.42401000 2.79220000e-03
-7.39401000 2.80704000e-03
-7.36401000 2.82161000e-03
-7.33401000 2.83606000e-03
-7.30401000 2.85046000e-03
-7.27401000 2.86486000e-03
-7.24401000 2.87929000e-03
-7.21401000 2.89377000e-03
-7.18401000 2.90831000e-03
-7.15401000 2.92293000e-03
-7.12401000 2.93763000e-03
-7.09401000 2.95241000e-03
-7.06401000 2.96730000e-03
-7.03401000 2.98228000e-03
-7.00401000 2.99737000e-03
-6.97401000 3.01257000e-03
-6.94401000 3.02788000e-03
-6.91401000 3.04331000e-03
-6.88401000 3.05886000e-03
-6.85401000 3.07454000e-03
-6.82401000 3.09035000e-03
-6.79401000 3.10631000e-03
-6.76401000 3.12242000e-03
-6.73401000 3.13870000e-03
-6.70401000 3.15518000e-03
-6.67401000 3.17190000e-03
-6.61553000 3.20561000e-03
-6.58553000 3.22394000e-03
-6.55553000 3.24382000e-03
-6.52553000 3.26689000e-03
-6.49553000 3.29560000e-03
-6.46553000 3.32254000e-03
-6.43553000 3.33002000e-03
-6.40553000 3.33481000e-03
-6.37553000 3.34515000e-03
-6.34553000 3.35859000e-03
-6.31553000 3.37333000e-03
-6.28553000 3.38845000e-03
-6.25553000 3.40344000e-03
-6.22553000 3.41785000e-03
-6.19553000 3.43114000e-03
-6.16553000 3.44259000e-03
-6.13553000 3.45098000e-03
-6.10553000 3.45424000e-03
-6.07553000 3.44847000e-03
-6.04553000 3.42578000e-03
-6.01553000 3.36892000e-03
-5.98553000 3.23855000e-03
-5.95553000 2.96374000e-03
-5.92553000 2.63615000e-03
-5.89553000 2.81116000e-03
-5.86553000 3.20153000e-03
-5.83553000 3.43785000e-03
-5.80553000 3.56777000e-03
-5.77553000 3.64806000e-03
-5.74553000 3.70469000e-03
-5.68706000 3.78518000e-03
-5.65706000 3.81929000e-03
-5.62706000 3.85105000e-03
-5.59706000 3.88139000e-03
-5.56706000 3.91089000e-03
-5.53706000 3.93992000e-03
-5.50706000 3.96873000e-03
-5.47706000 3.99751000e-03
-5.44706000 4.02639000e-03
-5.41706000 4.05548000e-03
-5.38706000 4.08484000e-03
-5.35706000 4.11457000e-03
-5.32706000 4.14471000e-03
-5.29706000 4.17534000e-03
-5.26706000 4.20651000e-03
-5.23706000 4.23830000e-03
-5.20706000 4.27078000e-03
-5.17706000 4.30404000e-03
-5.14706000 4.33820000e-03
-5.11706000 4.37342000e-03
-5.08706000 4.40990000e-03
-5.05706000 4.44797000e-03
-5.02706000 4.48810000e-03
-4.99706000 4.53109000e-03
-4.96706000 4.57834000e-03
-4.93706000 4.63247000e-03
-4.90706000 4.69892000e-03
-4.87706000 4.78969000e-03
-4.84706000 4.93165000e-03
-4.81706000 5.15867000e-03
-4.75858000 5.22379000e-03
-4.72858000 5.09478000e-03
-4.69858000 5.05051000e-03
-4.66858000 5.05495000e-03
-4.63858000 5.08382000e-03
-4.60858000 5.12681000e-03
-4.57858000 5.17995000e-03
-4.54858000 5.24232000e-03
-4.51858000 5.31497000e-03
-4.48858000 5.40111000e-03
-4.45858000 5.50734000e-03
-4.42858000 5.64699000e-03
-4.39858000 5.84862000e-03
-4.36858000 6.17683000e-03
-4.33858000 6.76676000e-03
-4.30858000 7.65479000e-03
-4.27858000 7.84616000e-03
-4.24858000 7.15447000e-03
-4.21858000 6.70901000e-03
-4.18858000 6.56847000e-03
-4.15858000 6.60405000e-03
-4.12858000 6.77410000e-03
-4.09858000 7.11481000e-03
-4.06858000 7.76204000e-03
-4.03858000 8.89065000e-03
-4.00858000 9.68603000e-03
-3.97858000 8.93539000e-03
-3.94858000 8.18006000e-03
-3.91858000 7.89840000e-03
-3.88858000 7.89320000e-03
-3.83011000 8.30469000e-03
-3.80011000 8.69307000e-03
-3.77011000 9.23255000e-03
-3.74011000 9.98897000e-03
-3.71011000 1.10206000e-02
-3.68011000 1.23084000e-02
-3.65011000 1.42168000e-02
-3.62011000 1.74469000e-02
-3.59011000 2.30282000e-02
-3.56011000 3.13991000e-02
-3.53011000 4.35156000e-02
-3.50011000 6.81136000e-02
-3.47011000 9.88156000e-02
-3.44011000 8.56178000e-02
-3.41011000 5.24262000e-02
-3.38011000 3.30602000e-02
-3.35011000 2.34102000e-02
-3.32011000 1.83230000e-02
-3.29011000 1.54334000e-02
-3.26011000 1.36931000e-02
-3.23011000 1.26052000e-02
-3.20011000 1.19159000e-02
-3.17011000 1.14879000e-02
-3.14011000 1.12448000e-02
-3.11011000 1.11475000e-02
-3.08011000 1.11850000e-02
-3.05011000 1.13369000e-02
-3.02011000 1.14685000e-02
-2.99011000 1.16043000e-02
-2.96011000 1.18821000e-02
-2.90163000 1.30484000e-02
-2.87163000 1.42931000e-02
-2.84163000 1.65040000e-02
-2.81163000 1.92045000e-02
-2.78163000 1.88594000e-02
-2.75163000 1.70722000e-02
-2.72163000 1.63741000e-02
-2.69163000 1.64851000e-02
-2.66163000 1.69726000e-02
-2.63163000 1.77732000e-02
-2.60163000 1.89078000e-02
-2.57163000 2.04055000e-02
-2.54163000 2.23545000e-02
-2.51163000 2.49211000e-02
-2.48163000 2.83320000e-02
-2.45163000 3.28098000e-02
-2.42163000 3.91455000e-02
-2.39163000 4.88938000e-02
-2.36163000 6.50404000e-02
-2.33163000 9.35367000e-02
-2.30163000 1.36671000e-01
-2.27163000 1.66622000e-01
-2.24163000 1.98535000e-01
-2.21163000 2.89683000e-01
-2.18163000 4.61884000e-01
-2.15163000 5.29073000e-01
-2.12163000 3.72627000e-01
-2.09163000 2.46787000e-01
-2.06163000 1.71318000e-01
-2.03163000 1.30926000e-01
-1.97316000 1.46604000e-01
-1.94316000 1.96300000e-01
-1.91316000 1.91601000e-01
-1.88316000 1.27490000e-01
-1.85316000 8.36730000e-02
-1.82316000 6.16060000e-02
-1.79316000 5.08318000e-02
-1.76316000 4.58615000e-02
-1.73316000 4.16203000e-02
-1.70316000 3.75334000e-02
-1.67316000 3.57149000e-02
-1.64316000 3.63412000e-02
-1.61316000 3.99442000e-02
-1.58316000 4.60499000e-02
-1.55316000 4.60677000e-02
-1.52316000 4.07781000e-02
-1.49316000 3.70928000e-02
-1.46316000 3.55534000e-02
-1.43316000 3.59505000e-02
-1.40316000 3.80449000e-02
-1.37316000 4.16951000e-02
-1.34316000 4.51597000e-02
-1.31316000 4.75281000e-02
-1.28316000 5.14070000e-02
-1.25316000 5.93586000e-02
-1.22316000 7.21171000e-02
-1.19316000 8.58110000e-02
-1.16316000 1.03505000e-01
-1.13316000 1.33970000e-01
-1.10316000 1.96534000e-01
-1.04468000 3.12248000e-01
-1.01468000 2.20216000e-01
-0.98468100 1.56021000e-01
-0.95468100 1.28887000e-01
-0.92468100 1.21547000e-01
-0.89468100 1.25874000e-01
-0.86468100 1.39486000e-01
-0.83468100 1.63068000e-01
-0.80468100 1.99626000e-01
-0.77468100 2.56822000e-01
-0.74468100 3.50840000e-01
-0.71468100 5.14858000e-01
-0.68468100 8.16392000e-01
-0.65468100 1.39572000e+00
-0.62468100 2.37255000e+00
-0.59468100 2.75871000e+00
-0.56468100 1.93209000e+00
-0.53468100 1.14924000e+00
-0.50468100 6.93497000e-01
-0.47468100 4.59262000e-01
-0.44468100 3.34667000e-01
-0.41468100 2.67243000e-01
-0.38468100 2.21385000e-01
-0.35468100 1.83577000e-01
-0.32468100 1.60265000e-01
-0.29468100 1.48966000e-01
-0.26468100 1.47024000e-01
-0.23468100 1.54644000e-01
-0.20468100 1.77028000e-01
-0.17468100 2.26781000e-01
-0.11620600 4.73321000e-01
-0.08620550 4.82226000e-01
-0.05620550 3.46113000e-01
-0.02620550 2.56539000e-01
0.00379449 2.20838000e-01
0.03379450 2.16251000e-01
0.06379450 2.32913000e-01
0.09379450 2.70138000e-01
0.12379400 3.34502000e-01
0.15379400 4.42600000e-01
0.18379400 6.31114000e-01
0.21379400 9.82508000e-01
0.24379400 1.66634000e+00
0.27379400 2.80505000e+00
0.30379400 3.77248000e+00
0.33379400 3.06458000e+00
0.36379400 1.77114000e+00
0.39379400 1.02854000e+00
0.42379400 6.55520000e-01
0.45379400 4.57574000e-01
0.48379400 3.46726000e-01
0.51379400 2.84340000e-01
0.54379400 2.50021000e-01
0.57379400 2.22532000e-01
0.60379400 1.85426000e-01
0.63379400 1.55068000e-01
0.66379400 1.35799000e-01
0.69379400 1.23831000e-01
0.72379400 1.16590000e-01
0.75379400 1.12759000e-01
