# E(MeV)  S_GAMTGAMT(K=1) for Bi226_DDPCX
-8.47249000 1.52056000e-03
-8.44249000 1.60387000e-03
-8.41249000 1.49307000e-03
-8.38249000 1.46150000e-03
-8.35249000 1.74759000e-03
-8.32249000 1.98715000e-03
-8.29249000 2.11780000e-03
-8.26249000 2.19017000e-03
-8.23249000 2.23083000e-03
-8.20249000 2.24893000e-03
-8.17249000 2.26018000e-03
-8.14249000 2.29597000e-03
-8.11249000 2.33422000e-03
-8.08249000 2.36240000e-03
-8.05249000 2.38442000e-03
-8.02249000 2.40261000e-03
-7.99249000 2.41849000e-03
-7.96249000 2.43283000e-03
-7.93249000 2.44598000e-03
-7.90249000 2.45806000e-03
-7.87249000 2.46897000e-03
-7.84249000 2.47837000e-03
-7.81249000 2.48550000e-03
-7.78249000 2.48874000e-03
-7.75249000 2.48450000e-03
-7.72249000 2.46467000e-03
-7.69249000 2.41620000e-03
-7.66249000 2.36309000e-03
-7.63249000 2.37767000e-03
-7.60249000 2.40558000e-03
-7.54401000 2.53653000e-03
-7.51401000 2.58067000e-03
-7.48401000 2.60843000e-03
-7.45401000 2.62700000e-03
-7.42401000 2.63851000e-03
-7.39401000 2.64733000e-03
-7.36401000 2.66666000e-03
-7.33401000 2.68931000e-03
-7.30401000 2.70800000e-03
-7.27401000 2.72412000e-03
-7.24401000 2.73899000e-03
-7.21401000 2.75324000e-03
-7.18401000 2.76716000e-03
-7.15401000 2.78090000e-03
-7.12401000 2.79454000e-03
-7.09401000 2.80815000e-03
-7.06401000 2.82175000e-03
-7.03401000 2.83537000e-03
-7.00401000 2.84902000e-03
-6.97401000 2.86272000e-03
-6.94401000 2.87648000e-03
-6.91401000 2.89030000e-03
-6.88401000 2.90419000e-03
-6.85401000 2.91816000e-03
-6.82401000 2.93221000e-03
-6.79401000 2.94635000e-03
-6.76401000 2.96058000e-03
-6.73401000 2.97490000e-03
-6.70401000 2.98932000e-03
-6.67401000 3.00384000e-03
-6.61553000 3.03241000e-03
-6.58553000 3.04721000e-03
-6.55553000 3.06210000e-03
-6.52553000 3.07704000e-03
-6.49553000 3.09200000e-03
-6.46553000 3.10683000e-03
-6.43553000 3.12129000e-03
-6.40553000 3.13557000e-03
-6.37553000 3.15171000e-03
-6.34553000 3.16887000e-03
-6.31553000 3.18562000e-03
-6.28553000 3.20213000e-03
-6.25553000 3.21861000e-03
-6.22553000 3.23515000e-03
-6.19553000 3.25180000e-03
-6.16553000 3.26862000e-03
-6.13553000 3.28568000e-03
-6.10553000 3.30311000e-03
-6.07553000 3.32131000e-03
-6.04553000 3.34112000e-03
-6.01553000 3.36237000e-03
-5.98553000 3.36848000e-03
-5.95553000 3.35160000e-03
-5.92553000 3.37337000e-03
-5.89553000 3.40805000e-03
-5.86553000 3.43560000e-03
-5.83553000 3.45872000e-03
-5.80553000 3.47995000e-03
-5.77553000 3.50042000e-03
-5.74553000 3.52060000e-03
-5.68706000 3.55994000e-03
-5.65706000 3.58030000e-03
-5.62706000 3.60085000e-03
-5.59706000 3.62162000e-03
-5.56706000 3.64263000e-03
-5.53706000 3.66390000e-03
-5.50706000 3.68545000e-03
-5.47706000 3.70730000e-03
-5.44706000 3.72947000e-03
-5.41706000 3.75198000e-03
-5.38706000 3.77484000e-03
-5.35706000 3.79808000e-03
-5.32706000 3.82173000e-03
-5.29706000 3.84582000e-03
-5.26706000 3.87040000e-03
-5.23706000 3.89551000e-03
-5.20706000 3.92122000e-03
-5.17706000 3.94763000e-03
-5.14706000 3.97486000e-03
-5.11706000 4.00310000e-03
-5.08706000 4.03265000e-03
-5.05706000 4.06405000e-03
-5.02706000 4.09812000e-03
-4.99706000 4.13490000e-03
-4.96706000 4.17351000e-03
-4.93706000 4.21871000e-03
-4.90706000 4.27743000e-03
-4.87706000 4.36198000e-03
-4.84706000 4.50062000e-03
-4.81706000 4.73678000e-03
-4.75858000 4.84494000e-03
-4.72858000 4.66000000e-03
-4.69858000 4.57475000e-03
-4.66858000 4.55126000e-03
-4.63858000 4.55767000e-03
-4.60858000 4.57985000e-03
-4.57858000 4.61179000e-03
-4.54858000 4.65111000e-03
-4.51858000 4.69732000e-03
-4.48858000 4.75135000e-03
-4.45858000 4.81589000e-03
-4.42858000 4.89664000e-03
-4.39858000 5.00578000e-03
-4.36858000 5.17067000e-03
-4.33858000 5.45189000e-03
-4.30858000 5.91683000e-03
-4.27858000 6.21841000e-03
-4.24858000 5.92246000e-03
-4.21858000 5.64649000e-03
-4.18858000 5.55127000e-03
-4.15858000 5.56241000e-03
-4.12858000 5.64182000e-03
-4.09858000 5.78645000e-03
-4.06858000 6.02663000e-03
-4.03858000 6.43798000e-03
-4.00858000 7.02205000e-03
-3.97858000 7.20778000e-03
-3.94858000 7.02131000e-03
-3.91858000 7.07501000e-03
-3.88858000 7.34182000e-03
-3.83011000 8.18382000e-03
-3.80011000 9.15040000e-03
-3.77011000 1.08639000e-02
-3.74011000 1.41008000e-02
-3.71011000 2.03670000e-02
-3.68011000 2.85073000e-02
-3.65011000 2.68677000e-02
-3.62011000 1.96904000e-02
-3.59011000 1.61646000e-02
-3.56011000 1.58039000e-02
-3.53011000 1.70210000e-02
-3.50011000 1.99454000e-02
-3.47011000 2.63995000e-02
-3.44011000 3.85401000e-02
-3.41011000 4.41840000e-02
-3.38011000 3.17816000e-02
-3.35011000 2.09630000e-02
-3.32011000 1.54730000e-02
-3.29011000 1.27549000e-02
-3.26011000 1.13638000e-02
-3.23011000 1.06743000e-02
-3.20011000 1.04159000e-02
-3.17011000 1.04797000e-02
-3.14011000 1.08500000e-02
-3.11011000 1.15951000e-02
-3.08011000 1.28971000e-02
-3.05011000 1.50225000e-02
-3.02011000 1.80573000e-02
-2.99011000 2.23334000e-02
-2.96011000 3.03389000e-02
-2.90163000 7.23627000e-02
-2.87163000 7.86895000e-02
-2.84163000 5.62734000e-02
-2.81163000 3.68102000e-02
-2.78163000 2.55042000e-02
-2.75163000 1.95636000e-02
-2.72163000 1.62529000e-02
-2.69163000 1.46048000e-02
-2.66163000 1.41747000e-02
-2.63163000 1.46592000e-02
-2.60163000 1.48029000e-02
-2.57163000 1.40321000e-02
-2.54163000 1.40973000e-02
-2.51163000 1.55447000e-02
-2.48163000 1.62828000e-02
-2.45163000 1.44713000e-02
-2.42163000 1.27954000e-02
-2.39163000 1.20386000e-02
-2.36163000 1.18191000e-02
-2.33163000 1.17314000e-02
-2.30163000 1.16905000e-02
-2.27163000 1.17875000e-02
-2.24163000 1.20411000e-02
-2.21163000 1.24388000e-02
-2.18163000 1.29758000e-02
-2.15163000 1.36926000e-02
-2.12163000 1.46898000e-02
-2.09163000 1.60196000e-02
-2.06163000 1.74208000e-02
-2.03163000 1.90766000e-02
-1.97316000 2.54337000e-02
-1.94316000 3.15092000e-02
-1.91316000 3.86938000e-02
-1.88316000 4.89365000e-02
-1.85316000 6.90109000e-02
-1.82316000 1.03421000e-01
-1.79316000 1.55106000e-01
-1.76316000 2.19655000e-01
-1.73316000 1.96522000e-01
-1.70316000 1.21776000e-01
-1.67316000 7.69881000e-02
-1.64316000 5.68574000e-02
-1.61316000 4.93421000e-02
-1.58316000 4.28127000e-02
-1.55316000 3.42672000e-02
-1.52316000 2.87514000e-02
-1.49316000 2.58040000e-02
-1.46316000 2.43089000e-02
-1.43316000 2.37083000e-02
-1.40316000 2.37599000e-02
-1.37316000 2.43818000e-02
-1.34316000 2.56049000e-02
-1.31316000 2.75753000e-02
-1.28316000 3.06038000e-02
-1.25316000 3.53085000e-02
-1.22316000 4.29114000e-02
-1.19316000 5.53903000e-02
-1.16316000 7.50007000e-02
-1.13316000 1.11423000e-01
-1.10316000 1.82215000e-01
-1.04468000 2.09256000e-01
-1.01468000 1.36031000e-01
-0.98468100 9.07393000e-02
-0.95468100 6.80390000e-02
-0.92468100 5.67620000e-02
-0.89468100 5.13494000e-02
-0.86468100 4.99561000e-02
-0.83468100 5.16937000e-02
-0.80468100 5.64002000e-02
-0.77468100 6.33617000e-02
-0.74468100 7.31484000e-02
-0.71468100 8.97391000e-02
-0.68468100 1.18169000e-01
-0.65468100 1.66413000e-01
-0.62468100 2.53852000e-01
-0.59468100 4.24809000e-01
-0.56468100 6.66622000e-01
-0.53468100 6.48387000e-01
-0.50468100 4.13923000e-01
-0.47468100 2.70195000e-01
-0.44468100 2.13449000e-01
-0.41468100 1.95211000e-01
-0.38468100 1.91979000e-01
-0.35468100 2.24033000e-01
-0.32468100 3.20092000e-01
-0.29468100 4.89102000e-01
-0.26468100 5.71183000e-01
-0.23468100 4.70677000e-01
-0.20468100 3.13903000e-01
-0.17468100 2.24632000e-01
-0.11620600 1.64684000e-01
-0.08620550 1.56227000e-01
-0.05620550 1.34398000e-01
-0.02620550 1.07644000e-01
0.00379449 9.04306000e-02
0.03379450 7.90560000e-02
0.06379450 6.95727000e-02
0.09379450 6.09730000e-02
0.12379400 5.59281000e-02
0.15379400 5.36407000e-02
0.18379400 5.29973000e-02
0.21379400 5.17275000e-02
0.24379400 5.08054000e-02
0.27379400 5.06345000e-02
0.30379400 5.09852000e-02
0.33379400 5.22477000e-02
0.36379400 5.43918000e-02
0.39379400 5.74823000e-02
0.42379400 6.17460000e-02
0.45379400 6.72082000e-02
0.48379400 7.36073000e-02
0.51379400 8.10528000e-02
0.54379400 9.11816000e-02
0.57379400 1.05256000e-01
0.60379400 1.23047000e-01
0.63379400 1.44653000e-01
0.66379400 1.72100000e-01
0.69379400 2.07387000e-01
0.72379400 2.51145000e-01
0.75379400 2.98719000e-01
