# E(MeV)  S_GAMTGAMT(Total=K0+2*K1) for Bk255_DDPCX
-2.23544000 1.09546600e-02
-2.20544000 1.10177100e-02
-2.17544000 1.10811800e-02
-2.14544000 1.11451300e-02
-2.11544000 1.12095900e-02
-2.08544000 1.12745800e-02
-2.05544000 1.13401300e-02
-2.02544000 1.14062800e-02
-1.99544000 1.14730800e-02
-1.96544000 1.15405100e-02
-1.93067000 1.16195300e-02
-1.90067000 1.16884900e-02
-1.87067000 1.17581800e-02
-1.84067000 1.18286100e-02
-1.81067000 1.18998600e-02
-1.78067000 1.19719200e-02
-1.75067000 1.20448300e-02
-1.72067000 1.21186100e-02
-1.69067000 1.21933000e-02
-1.66067000 1.22689100e-02
-1.62590000 1.23577600e-02
-1.59590000 1.24355000e-02
-1.56590000 1.25143000e-02
-1.53590000 1.25941600e-02
-1.50590000 1.26751300e-02
-1.47590000 1.27572600e-02
-1.44590000 1.28405800e-02
-1.41590000 1.29251600e-02
-1.38590000 1.30110400e-02
-1.35590000 1.30982500e-02
-1.32113000 1.32011600e-02
-1.29113000 1.32915700e-02
-1.26113000 1.33836500e-02
-1.23113000 1.34775700e-02
-1.20113000 1.35737500e-02
-1.17113000 1.36723800e-02
-1.14113000 1.37713500e-02
-1.11113000 1.38701400e-02
-1.08113000 1.39714900e-02
-1.05113000 1.40757300e-02
-1.01636000 1.41999800e-02
-0.98635800 1.43102100e-02
-0.95635800 1.44235800e-02
-0.92635800 1.45405400e-02
-0.89635800 1.46620200e-02
-0.86635800 1.47897000e-02
-0.83635800 1.49272900e-02
-0.80635800 1.50826300e-02
-0.77635800 1.52639400e-02
-0.74635800 1.54256800e-02
-0.71158700 1.55314500e-02
-0.68158700 1.56359900e-02
-0.65158700 1.57656400e-02
-0.62158700 1.59111400e-02
-0.59158700 1.60680800e-02
-0.56158700 1.62353000e-02
-0.53158700 1.64132600e-02
-0.50158700 1.66038100e-02
-0.47158700 1.68109000e-02
-0.44158700 1.70426800e-02
-0.40681600 1.73562600e-02
-0.37681600 1.76255800e-02
-0.34681600 1.78390800e-02
-0.31681600 1.80781000e-02
-0.28681600 1.83683300e-02
-0.25681600 1.87072400e-02
-0.22681600 1.90993800e-02
-0.19681600 1.95573600e-02
-0.16681600 2.01029500e-02
-0.13681600 2.07714600e-02
-0.10204400 2.17801400e-02
-0.07204420 2.29784100e-02
-0.04204420 2.47122200e-02
-0.01204420 2.74565800e-02
0.01795580 3.22560000e-02
0.04795580 4.07891000e-02
0.07795580 4.97793800e-02
0.10795600 4.82270000e-02
0.13795600 4.63455000e-02
0.16795600 5.27015000e-02
0.20272700 7.33070000e-02
0.23272700 9.43681000e-02
0.26272700 9.84102000e-02
0.29272700 7.71150000e-02
0.32272700 6.05009000e-02
0.35272700 5.57270000e-02
0.38272700 6.01407000e-02
0.41272700 7.61903000e-02
0.44272700 1.08572100e-01
0.47272700 1.47486000e-01
0.50749900 1.33342300e-01
0.53749900 9.39988000e-02
0.56749900 6.63868000e-02
0.59749900 5.09772000e-02
0.62749900 4.34294000e-02
0.65749900 3.91613000e-02
0.68749900 3.61195000e-02
0.71749900 3.43737000e-02
0.74749900 3.34742000e-02
0.77749900 3.30128000e-02
