# E(MeV)  S_NSDRNSDR(Total=K0+2*K1) for Bk255_DDPCX
-2.23544000 1.29843800e+01
-2.20544000 1.92963000e+01
-2.17544000 1.86435700e+01
-2.14544000 1.78344400e+01
-2.11544000 2.43371400e+01
-2.08544000 3.60727600e+01
-2.05544000 2.96981780e+01
-2.02544000 5.72260200e+00
-1.99544000 -1.63021280e+01
-1.96544000 -2.18623080e+01
-1.93067000 -1.37639200e+01
-1.90067000 -1.15472100e+01
-1.87067000 -1.39262800e+01
-1.84067000 -1.34945200e+01
-1.81067000 -8.13279500e+00
-1.78067000 -4.36346700e+00
-1.75067000 -2.43503500e+00
-1.72067000 -1.41411600e+00
-1.69067000 -8.26838000e-01
-1.66067000 -4.62223900e-01
-1.62590000 -1.90116530e-01
-1.59590000 -3.01058000e-02
-1.56590000 8.79797000e-02
-1.53590000 1.78908500e-01
-1.50590000 2.51758900e-01
-1.47590000 3.12357000e-01
-1.44590000 3.64593000e-01
-1.41590000 4.11155400e-01
-1.38590000 4.53986000e-01
-1.35590000 4.94536000e-01
-1.32113000 5.40181000e-01
-1.29113000 5.79471000e-01
-1.26113000 6.19561000e-01
-1.23113000 6.61267000e-01
-1.20113000 7.05433000e-01
-1.17113000 7.52999000e-01
-1.14113000 8.05070000e-01
-1.11113000 8.63012000e-01
-1.08113000 9.28579000e-01
-1.05113000 1.00411300e+00
-1.01636000 1.10844000e+00
-0.98635800 1.21830800e+00
-0.95635800 1.35403000e+00
-0.92635800 1.52663500e+00
-0.89635800 1.75376900e+00
-0.86635800 2.06511000e+00
-0.83635800 2.51350700e+00
-0.80635800 3.19975900e+00
-0.77635800 4.33129800e+00
-0.74635800 6.36485400e+00
-0.71158700 1.11464420e+01
-0.68158700 1.82513060e+01
-0.65158700 2.41141980e+01
-0.62158700 1.94984590e+01
-0.59158700 1.16887890e+01
-0.56158700 7.30360900e+00
-0.53158700 5.13823200e+00
-0.50158700 4.01977900e+00
-0.47158700 3.41699800e+00
-0.44158700 3.09464300e+00
-0.40681600 2.93014800e+00
-0.37681600 2.91075900e+00
-0.34681600 2.98129000e+00
-0.31681600 3.13629300e+00
-0.28681600 3.38344100e+00
-0.25681600 3.74497100e+00
-0.22681600 4.26451700e+00
-0.19681600 5.02348800e+00
-0.16681600 6.17831100e+00
-0.13681600 8.04938000e+00
-0.10204400 1.20837700e+01
-0.07204420 1.90720100e+01
-0.04204420 3.11602500e+01
-0.01204420 3.79180500e+01
0.01795580 2.92532900e+01
0.04795580 2.30535700e+01
0.07795580 2.42760100e+01
0.10795600 3.09842100e+01
0.13795600 3.32320000e+01
0.16795600 3.24956000e+01
0.20272700 4.20047200e+01
0.23272700 5.09834200e+01
0.26272700 4.09887600e+01
0.29272700 2.60779200e+01
0.32272700 1.79701400e+01
0.35272700 1.42814500e+01
0.38272700 1.28761200e+01
0.41272700 1.28956600e+01
0.44272700 1.41712600e+01
0.47272700 1.70599000e+01
0.50749900 2.40041200e+01
0.53749900 3.64871300e+01
0.56749900 5.98527700e+01
0.59749900 8.03232400e+01
0.62749900 6.44305300e+01
0.65749900 4.43669100e+01
0.68749900 3.67187700e+01
0.71749900 3.82169000e+01
0.74749900 4.68002000e+01
0.77749900 6.44910000e+01
