# E(MeV)  S_GAMTGAMT(Total=K0+2*K1) for Br88_DDPCX
-9.85960000 2.78540200e-03
-9.82960000 2.89126400e-03
-9.79960000 2.96767400e-03
-9.76960000 3.01885800e-03
-9.73960000 3.04581600e-03
-9.70960000 3.04629000e-03
-9.67960000 3.01374000e-03
-9.64960000 2.93456300e-03
-9.61960000 2.78192500e-03
-9.58960000 2.50123700e-03
-9.55960000 1.97424400e-03
-9.52960000 9.31030000e-04
-9.49960000 -1.17823000e-03
-9.46960000 -4.31243000e-03
-9.43960000 -4.26515000e-03
-9.40960000 -1.18449000e-03
-9.37960000 7.63908000e-04
-9.34960000 1.50413500e-03
-9.31960000 1.44542400e-03
-9.28960000 1.24071700e-03
-9.25960000 1.96586300e-03
-9.22960000 2.77633200e-03
-9.19960000 3.24513000e-03
-9.16960000 3.51450000e-03
-9.13960000 3.68652000e-03
-9.10960000 3.80791000e-03
-9.07960000 3.90063000e-03
-9.04960000 3.97587000e-03
-9.01960000 4.03978000e-03
-8.98960000 4.09605000e-03
-8.95960000 4.14696000e-03
-8.92960000 4.19401000e-03
-8.89960000 4.23822000e-03
-8.86960000 4.28034000e-03
-8.83960000 4.32091000e-03
-8.79242000 4.38242000e-03
-8.76242000 4.42052000e-03
-8.73242000 4.45806000e-03
-8.70242000 4.49525000e-03
-8.67242000 4.53218000e-03
-8.64242000 4.56898000e-03
-8.61242000 4.60572000e-03
-8.58242000 4.64249000e-03
-8.55242000 4.67936000e-03
-8.52242000 4.71636000e-03
-8.49242000 4.75359000e-03
-8.46242000 4.79105000e-03
-8.43242000 4.82879000e-03
-8.40242000 4.86685000e-03
-8.37242000 4.90529000e-03
-8.34242000 4.94408000e-03
-8.31242000 4.98332000e-03
-8.28242000 5.02298000e-03
-8.25242000 5.06314000e-03
-8.22242000 5.10377000e-03
-8.19242000 5.14494000e-03
-8.16242000 5.18664000e-03
-8.13242000 5.22894000e-03
-8.10242000 5.27181000e-03
-8.07242000 5.31533000e-03
-8.04242000 5.35949000e-03
-8.01242000 5.40432000e-03
-7.98242000 5.44986000e-03
-7.95242000 5.49611000e-03
-7.92242000 5.54312000e-03
-7.89242000 5.59092000e-03
-7.86242000 5.63952000e-03
-7.83242000 5.68895000e-03
-7.80242000 5.73926000e-03
-7.77242000 5.79045000e-03
-7.72523000 5.87285000e-03
-7.69523000 5.92650000e-03
-7.66523000 5.98116000e-03
-7.63523000 6.03686000e-03
-7.60523000 6.09366000e-03
-7.57523000 6.15156000e-03
-7.54523000 6.21064000e-03
-7.51523000 6.27092000e-03
-7.48523000 6.33245000e-03
-7.45523000 6.39526000e-03
-7.42523000 6.45944000e-03
-7.39523000 6.52498000e-03
-7.36523000 6.59199000e-03
-7.33523000 6.66050000e-03
-7.30523000 6.73055000e-03
-7.27523000 6.80222000e-03
-7.24523000 6.87557000e-03
-7.21523000 6.95067000e-03
-7.18523000 7.02757000e-03
-7.15523000 7.10637000e-03
-7.12523000 7.18712000e-03
-7.09523000 7.26993000e-03
-7.06523000 7.35487000e-03
-7.03523000 7.44204000e-03
-7.00523000 7.53151000e-03
-6.97523000 7.62343000e-03
-6.94523000 7.71784000e-03
-6.91523000 7.81491000e-03
-6.88523000 7.91475000e-03
-6.85523000 8.01746000e-03
-6.82523000 8.12322000e-03
-6.79523000 8.23214000e-03
-6.76523000 8.34437000e-03
-6.73523000 8.46011000e-03
-6.70523000 8.57948000e-03
-6.65804000 8.77512000e-03
-6.62804000 8.90481000e-03
-6.59804000 9.03890000e-03
-6.56804000 9.17760000e-03
-6.53804000 9.32119000e-03
-6.50804000 9.46993000e-03
-6.47804000 9.62413000e-03
-6.44804000 9.78411000e-03
-6.41804000 9.95019000e-03
-6.38804000 1.01227600e-02
-6.35804000 1.03022400e-02
-6.32804000 1.04890400e-02
-6.29804000 1.06836800e-02
-6.26804000 1.08866600e-02
-6.23804000 1.10985800e-02
-6.20804000 1.13200700e-02
-6.17804000 1.15518700e-02
-6.14804000 1.17947300e-02
-6.11804000 1.20495600e-02
-6.08804000 1.23173600e-02
-6.05804000 1.25992800e-02
-6.02804000 1.28966400e-02
-5.99804000 1.32109600e-02
-5.96804000 1.35440500e-02
-5.93804000 1.38981500e-02
-5.90804000 1.42759600e-02
-5.87804000 1.46810000e-02
-5.84804000 1.51179000e-02
-5.81804000 1.55931500e-02
-5.78804000 1.61163900e-02
-5.75804000 1.67029400e-02
-5.72804000 1.73794500e-02
-5.69804000 1.81970800e-02
-5.66804000 1.92635200e-02
-5.63804000 2.08061800e-02
-5.59085000 2.42553600e-02
-5.56085000 2.48380200e-02
-5.53085000 2.51836200e-02
-5.50085000 2.69700400e-02
-5.47085000 3.09226000e-02
-5.44085000 3.75869600e-02
-5.41085000 4.08706200e-02
-5.38085000 3.63235600e-02
-5.35085000 3.28231200e-02
-5.32085000 3.17656200e-02
-5.29085000 3.20313200e-02
-5.26085000 3.30147400e-02
-5.23085000 3.44670800e-02
-5.20085000 3.62938200e-02
-5.17085000 3.84719200e-02
-5.14085000 4.10165800e-02
-5.11085000 4.39701000e-02
-5.08085000 4.73988400e-02
-5.05085000 5.13954000e-02
-5.02085000 5.60862000e-02
-4.99085000 6.16422000e-02
-4.96085000 6.82984000e-02
-4.93085000 7.63846000e-02
-4.90085000 8.63769000e-02
-4.87085000 9.89897000e-02
-4.84085000 1.15348300e-01
-4.81085000 1.37345700e-01
-4.78085000 1.68423000e-01
-4.75085000 2.15162000e-01
-4.72085000 2.87074000e-01
-4.69085000 3.74081400e-01
-4.66085000 4.65000000e-01
-4.63085000 6.35745600e-01
-4.60085000 9.85932600e-01
-4.57085000 1.69807980e+00
-4.52367000 3.26219500e+00
-4.49367000 2.51564160e+00
-4.46367000 1.47065400e+00
-4.43367000 9.15869400e-01
-4.40367000 6.55516200e-01
-4.37367000 5.40511000e-01
-4.34367000 5.09717000e-01
-4.31367000 5.45772000e-01
-4.28367000 6.60037000e-01
-4.25367000 9.00563000e-01
-4.22367000 1.38970940e+00
-4.19367000 2.39083360e+00
-4.16367000 3.97673920e+00
-4.13367000 4.17815400e+00
-4.10367000 2.59445660e+00
-4.07367000 1.46391120e+00
-4.04367000 8.93282300e-01
-4.01367000 5.96169600e-01
-3.98367000 4.28098600e-01
-3.95367000 3.25738100e-01
-3.92367000 2.59807300e-01
-3.89367000 2.15730000e-01
-3.86367000 1.85796800e-01
-3.83367000 1.65826500e-01
-3.80367000 1.53690300e-01
-3.77367000 1.48759700e-01
-3.74367000 1.52018300e-01
-3.71367000 1.67040400e-01
-3.68367000 2.01622400e-01
-3.65367000 2.59115500e-01
-3.62367000 3.16196600e-01
-3.59367000 4.18744500e-01
-3.56367000 6.34258700e-01
-3.53367000 7.74623000e-01
-3.50367000 6.48937000e-01
-3.45648000 5.90756000e-01
-3.42648000 4.62412200e-01
-3.39648000 3.07629800e-01
-3.36648000 2.25522200e-01
-3.33648000 1.84186800e-01
-3.30648000 1.59265900e-01
-3.27648000 1.41802700e-01
-3.24648000 1.14204300e-01
-3.21648000 9.36326000e-02
-3.18648000 8.28153000e-02
-3.15648000 7.82142000e-02
-3.12648000 7.82979000e-02
-3.09648000 8.31413000e-02
-3.06648000 9.39997000e-02
-3.03648000 1.10073900e-01
-3.00648000 1.30412100e-01
-2.97648000 1.70943600e-01
-2.94648000 2.46248400e-01
-2.91648000 3.86226500e-01
-2.88648000 5.87837300e-01
-2.85648000 5.58636500e-01
-2.82648000 3.48785200e-01
-2.79648000 2.18428500e-01
-2.76648000 1.59650100e-01
-2.73648000 1.41770700e-01
-2.70648000 1.57507250e-01
-2.67648000 2.00599640e-01
-2.64648000 1.95524900e-01
-2.61648000 1.33951710e-01
-2.58648000 9.15084300e-02
-2.55648000 6.95963600e-02
-2.52648000 5.82660400e-02
-2.49648000 5.25130700e-02
-2.46648000 4.83972800e-02
-2.43648000 4.47344100e-02
-2.38929000 4.36320800e-02
-2.35929000 4.70717500e-02
-2.32929000 5.64464400e-02
-2.29929000 7.34118100e-02
-2.26929000 7.81359500e-02
-2.23929000 6.01682400e-02
-2.20929000 4.61143800e-02
-2.17929000 3.90223300e-02
-2.14929000 3.55311500e-02
-2.11929000 3.38900700e-02
-2.08929000 3.34033900e-02
-2.05929000 3.38831200e-02
-2.02929000 3.54899900e-02
-1.99929000 3.88333200e-02
-1.96929000 4.54225000e-02
-1.93929000 5.86408000e-02
-1.90929000 8.23990000e-02
-1.87929000 1.00744100e-01
-1.84929000 8.65103000e-02
-1.81929000 7.36296000e-02
-1.78929000 7.67210000e-02
-1.75929000 7.55462000e-02
-1.72929000 6.11244000e-02
-1.69929000 5.24558000e-02
-1.66929000 4.60684000e-02
-1.63929000 3.94169000e-02
-1.60929000 3.54932000e-02
-1.57929000 3.36013000e-02
-1.54929000 3.28956000e-02
-1.51929000 3.30550000e-02
-1.48929000 3.41289000e-02
-1.45929000 3.65915000e-02
-1.42929000 4.17124000e-02
-1.39929000 5.16897000e-02
-1.36929000 6.22944000e-02
-1.32210000 4.99331000e-02
-1.29210000 4.24953000e-02
-1.26210000 3.95875000e-02
-1.23210000 3.93472000e-02
-1.20210000 4.12611000e-02
-1.17210000 4.61280000e-02
-1.14210000 5.63392000e-02
-1.11210000 7.19316000e-02
-1.08210000 7.32038000e-02
-1.05210000 5.94109000e-02
-1.02210000 5.10819000e-02
-0.99210500 4.88705000e-02
-0.96210500 4.92968000e-02
-0.93210500 4.92818000e-02
-0.90210500 5.11893000e-02
-0.87210500 5.55993000e-02
-0.84210500 5.84058000e-02
-0.81210500 6.22714000e-02
-0.78210500 7.32955000e-02
-0.75210500 9.11980000e-02
-0.72210500 9.42285000e-02
-0.69210500 8.29198000e-02
-0.66210500 7.97447000e-02
-0.63210500 8.71623000e-02
-0.60210500 1.06742800e-01
-0.57210500 1.36929200e-01
-0.54210500 1.70661000e-01
-0.51210500 1.96446900e-01
-0.48210500 1.85145400e-01
-0.45210500 1.47615800e-01
-0.42210500 1.25881200e-01
-0.39210500 1.20419800e-01
-0.36210500 1.25148000e-01
-0.33210500 1.35929000e-01
-0.30210500 1.52548800e-01
-0.25491700 2.07301000e-01
-0.22491700 2.73226000e-01
-0.19491700 3.90340000e-01
-0.16491700 6.17280400e-01
-0.13491700 1.06960560e+00
-0.10491700 1.73089360e+00
-0.07491730 1.70569120e+00
-0.04491730 1.04257300e+00
-0.01491730 6.05536000e-01
0.01508270 3.87362000e-01
0.04508270 2.74315400e-01
0.07508270 2.11382400e-01
0.10508300 1.74721800e-01
0.13508300 1.53486400e-01
0.16508300 1.40402100e-01
0.19508300 1.30665000e-01
0.22508300 1.25596000e-01
0.25508300 1.26517300e-01
0.28508300 1.33532200e-01
0.31508300 1.42688800e-01
0.34508300 1.54437700e-01
0.37508300 1.85137300e-01
0.40508300 2.47757000e-01
0.43508300 3.05036100e-01
0.46508300 2.93200600e-01
0.49508300 2.78233600e-01
0.52508300 2.35591600e-01
0.55508300 1.95529200e-01
0.58508300 1.83397200e-01
0.61508300 1.94836200e-01
0.64508300 2.34199200e-01
0.67508300 3.18036600e-01
0.70508300 4.15960700e-01
0.73508300 3.75080500e-01
0.76508300 2.83358500e-01
