# E(MeV)  S_NSDRNSDR(K=0) for Br88_DDPCX
-9.85960000 -1.53016000e+00
-9.82960000 -2.15936000e+00
-9.79960000 -3.34050000e+00
-9.76960000 -5.70404000e+00
-9.73960000 -1.00018000e+01
-9.70960000 -1.27527000e+01
-9.67960000 -8.91906000e+00
-9.64960000 -5.00862000e+00
-9.61960000 -2.96453000e+00
-9.58960000 -1.92378000e+00
-9.55960000 -1.34993000e+00
-9.52960000 -1.00673000e+00
-9.49960000 -7.87249000e-01
-9.46960000 -6.39231000e-01
-9.43960000 -5.35156000e-01
-9.40960000 -4.59555000e-01
-9.37960000 -4.03252000e-01
-9.34960000 -3.60559000e-01
-9.31960000 -3.27816000e-01
-9.28960000 -3.02608000e-01
-9.25960000 -2.83315000e-01
-9.22960000 -2.68842000e-01
-9.19960000 -2.58466000e-01
-9.16960000 -2.51742000e-01
-9.13960000 -2.48447000e-01
-9.10960000 -2.48555000e-01
-9.07960000 -2.52246000e-01
-9.04960000 -2.59924000e-01
-9.01960000 -2.72285000e-01
-8.98960000 -2.90421000e-01
-8.95960000 -3.16004000e-01
-8.92960000 -3.51603000e-01
-8.89960000 -4.01245000e-01
-8.86960000 -4.71433000e-01
-8.83960000 -5.73127000e-01
-8.79242000 -8.49197000e-01
-8.76242000 -1.16952000e+00
-8.73242000 -1.72998000e+00
-8.70242000 -2.79498000e+00
-8.67242000 -4.92349000e+00
-8.64242000 -8.32366000e+00
-8.61242000 -8.92141000e+00
-8.58242000 -5.60175000e+00
-8.55242000 -3.20630000e+00
-8.52242000 -2.06052000e+00
-8.49242000 -1.54285000e+00
-8.46242000 -1.16953000e+00
-8.43242000 -8.26399000e-01
-8.40242000 -6.03881000e-01
-8.37242000 -4.65915000e-01
-8.34242000 -3.74842000e-01
-8.31242000 -3.11049000e-01
-8.28242000 -2.64349000e-01
-8.25242000 -2.29075000e-01
-8.22242000 -2.01914000e-01
-8.19242000 -1.80978000e-01
-8.16242000 -1.65508000e-01
-8.13242000 -1.55852000e-01
-8.10242000 -1.50362000e-01
-8.07242000 -1.37860000e-01
-8.04242000 -1.21278000e-01
-8.01242000 -1.08764000e-01
-7.98242000 -9.94960000e-02
-7.95242000 -9.21134000e-02
-7.92242000 -8.59232000e-02
-7.89242000 -8.05705000e-02
-7.86242000 -7.58508000e-02
-7.83242000 -7.16327000e-02
-7.80242000 -6.78242000e-02
-7.77242000 -6.43565000e-02
-7.72523000 -5.94673000e-02
-7.69523000 -5.66559000e-02
-7.66523000 -5.40363000e-02
-7.63523000 -5.15810000e-02
-7.60523000 -4.92666000e-02
-7.57523000 -4.70719000e-02
-7.54523000 -4.49782000e-02
-7.51523000 -4.29676000e-02
-7.48523000 -4.10236000e-02
-7.45523000 -3.91297000e-02
-7.42523000 -3.72692000e-02
-7.39523000 -3.54248000e-02
-7.36523000 -3.35774000e-02
-7.33523000 -3.17055000e-02
-7.30523000 -2.97839000e-02
-7.27523000 -2.77822000e-02
-7.24523000 -2.56623000e-02
-7.21523000 -2.33747000e-02
-7.18523000 -2.08541000e-02
-7.15523000 -1.80106000e-02
-7.12523000 -1.47175000e-02
-7.09523000 -1.07900000e-02
-7.06523000 -5.94893000e-03
-7.03523000 2.44738000e-04
-7.00523000 8.51343000e-03
-6.97523000 2.01114000e-02
-6.94523000 3.73572000e-02
-6.91523000 6.48628000e-02
-6.88523000 1.12555000e-01
-6.85523000 2.03046000e-01
-6.82523000 3.81639000e-01
-6.79523000 6.36689000e-01
-6.76523000 6.16079000e-01
-6.73523000 3.63396000e-01
-6.70523000 2.01530000e-01
-6.65804000 9.75781000e-02
-6.62804000 7.24824000e-02
-6.59804000 6.23521000e-02
-6.56804000 6.29729000e-02
-6.53804000 7.46130000e-02
-6.50804000 1.02304000e-01
-6.47804000 1.59901000e-01
-6.44804000 2.79225000e-01
-6.41804000 4.90421000e-01
-6.38804000 5.91348000e-01
-6.35804000 3.94046000e-01
-6.32804000 2.21730000e-01
-6.29804000 1.39780000e-01
-6.26804000 1.07778000e-01
-6.23804000 8.48201000e-02
-6.20804000 5.47915000e-02
-6.17804000 3.40865000e-02
-6.14804000 2.19467000e-02
-6.11804000 1.44422000e-02
-6.08804000 9.48349000e-03
-6.05804000 6.04120000e-03
-6.02804000 3.57014000e-03
-5.99804000 1.75767000e-03
-5.96804000 4.12365000e-04
-5.93804000 -5.89117000e-04
-5.90804000 -1.32948000e-03
-5.87804000 -1.86584000e-03
-5.84804000 -2.23852000e-03
-5.81804000 -2.47635000e-03
-5.78804000 -2.59998000e-03
-5.75804000 -2.62402000e-03
-5.72804000 -2.55837000e-03
-5.69804000 -2.40907000e-03
-5.66804000 -2.17869000e-03
-5.63804000 -1.86647000e-03
-5.59085000 -1.19789000e-03
-5.56085000 -6.44617000e-04
-5.53085000 2.85012000e-05
-5.50085000 8.48501000e-04
-5.47085000 1.85623000e-03
-5.44085000 3.11447000e-03
-5.41085000 4.72259000e-03
-5.38085000 6.84455000e-03
-5.35085000 9.76538000e-03
-5.32085000 1.40131000e-02
-5.29085000 2.06420000e-02
-5.26085000 3.19322000e-02
-5.23085000 5.30720000e-02
-5.20085000 9.39289000e-02
-5.17085000 1.46855000e-01
-5.14085000 1.34328000e-01
-5.11085000 8.32820000e-02
-5.08085000 5.34687000e-02
-5.05085000 4.02182000e-02
-5.02085000 3.52208000e-02
-4.99085000 3.47863000e-02
-4.96085000 3.75853000e-02
-4.93085000 4.34850000e-02
-4.90085000 5.32931000e-02
-4.87085000 6.91455000e-02
-4.84085000 9.56837000e-02
-4.81085000 1.40020000e-01
-4.78085000 1.92804000e-01
-4.75085000 2.37428000e-01
-4.72085000 3.33238000e-01
-4.69085000 5.54158000e-01
-4.66085000 9.64790000e-01
-4.63085000 1.20773000e+00
-4.60085000 8.30206000e-01
-4.57085000 4.63109000e-01
-4.52367000 2.10236000e-01
-4.49367000 1.42876000e-01
-4.46367000 1.04779000e-01
-4.43367000 8.22157000e-02
-4.40367000 6.88652000e-02
-4.37367000 6.17999000e-02
-4.34367000 5.99808000e-02
-4.31367000 6.39211000e-02
-4.28367000 7.61689000e-02
-4.25367000 1.01221000e-01
-4.22367000 1.41609000e-01
-4.19367000 2.17469000e-01
-4.16367000 3.40305000e-01
-4.13367000 3.45597000e-01
-4.10367000 2.15904000e-01
-4.07367000 1.26511000e-01
-4.04367000 8.16331000e-02
-4.01367000 5.84856000e-02
-3.98367000 4.57928000e-02
-3.95367000 3.86533000e-02
-3.92367000 3.48691000e-02
-3.89367000 3.34639000e-02
-3.86367000 3.41214000e-02
-3.83367000 3.70243000e-02
-3.80367000 4.29550000e-02
-3.77367000 5.37485000e-02
-3.74367000 7.35190000e-02
-3.71367000 1.11730000e-01
-3.68367000 1.87927000e-01
-3.65367000 3.03486000e-01
-3.62367000 3.11442000e-01
-3.59367000 2.05447000e-01
-3.56367000 1.40533000e-01
-3.53367000 1.24097000e-01
-3.50367000 1.43050000e-01
-3.45648000 2.17897000e-01
-3.42648000 2.25470000e-01
-3.39648000 1.51187000e-01
-3.36648000 9.54491000e-02
-3.33648000 6.86231000e-02
-3.30648000 5.77379000e-02
-3.27648000 5.72803000e-02
-3.24648000 6.72378000e-02
-3.21648000 8.40992000e-02
-3.18648000 9.07494000e-02
-3.15648000 1.04476000e-01
-3.12648000 1.52609000e-01
-3.09648000 2.38173000e-01
-3.06648000 2.49353000e-01
-3.03648000 1.58784000e-01
-3.00648000 9.36767000e-02
-2.97648000 6.10343000e-02
-2.94648000 4.46961000e-02
-2.91648000 3.68650000e-02
-2.88648000 3.46521000e-02
-2.85648000 3.40483000e-02
-2.82648000 2.87271000e-02
-2.79648000 2.35713000e-02
-2.76648000 2.09940000e-02
-2.73648000 2.03276000e-02
-2.70648000 2.14560000e-02
-2.67648000 2.52325000e-02
-2.64648000 3.29491000e-02
-2.61648000 3.85547000e-02
-2.58648000 3.26528000e-02
-2.55648000 2.71489000e-02
-2.52648000 2.63638000e-02
-2.49648000 2.99533000e-02
-2.46648000 3.84771000e-02
-2.43648000 4.58558000e-02
-2.38929000 4.23185000e-02
-2.35929000 4.69490000e-02
-2.32929000 6.19067000e-02
-2.29929000 9.47346000e-02
-2.26929000 1.60805000e-01
-2.23929000 2.39315000e-01
-2.20929000 2.04983000e-01
-2.17929000 1.22292000e-01
-2.14929000 7.47004000e-02
-2.11929000 5.16524000e-02
-2.08929000 4.06867000e-02
-2.05929000 3.67123000e-02
-2.02929000 3.88944000e-02
-1.99929000 4.91611000e-02
-1.96929000 6.26242000e-02
-1.93929000 5.41878000e-02
-1.90929000 3.68368000e-02
-1.87929000 2.66864000e-02
-1.84929000 2.14866000e-02
-1.81929000 1.86716000e-02
-1.78929000 1.70604000e-02
-1.75929000 1.61234000e-02
-1.72929000 1.56076000e-02
-1.69929000 1.53844000e-02
-1.66929000 1.53875000e-02
-1.63929000 1.55857000e-02
-1.60929000 1.59710000e-02
-1.57929000 1.65543000e-02
-1.54929000 1.73671000e-02
-1.51929000 1.84691000e-02
-1.48929000 1.99678000e-02
-1.45929000 2.20623000e-02
-1.42929000 2.51040000e-02
-1.39929000 2.92448000e-02
-1.36929000 3.33420000e-02
-1.32210000 4.28914000e-02
-1.29210000 5.47621000e-02
-1.26210000 7.53446000e-02
-1.23210000 1.13430000e-01
-1.20210000 1.88950000e-01
-1.17210000 3.27785000e-01
-1.14210000 4.27433000e-01
-1.11210000 3.09059000e-01
-1.08210000 1.78924000e-01
-1.05210000 1.11128000e-01
-1.02210000 7.81564000e-02
-0.99210500 6.19791000e-02
-0.96210500 5.19723000e-02
-0.93210500 4.36338000e-02
-0.90210500 3.84905000e-02
-0.87210500 3.59693000e-02
-0.84210500 3.52969000e-02
-0.81210500 3.62103000e-02
-0.78210500 3.88702000e-02
-0.75210500 4.39294000e-02
-0.72210500 5.29094000e-02
-0.69210500 6.92322000e-02
-0.66210500 1.00789000e-01
-0.63210500 1.63428000e-01
-0.60210500 2.53149000e-01
-0.57210500 2.48311000e-01
-0.54210500 1.63739000e-01
-0.51210500 1.06360000e-01
-0.48210500 7.69867000e-02
-0.45210500 6.29820000e-02
-0.42210500 5.68292000e-02
-0.39210500 5.51944000e-02
-0.36210500 5.67440000e-02
-0.33210500 6.11374000e-02
-0.30210500 6.87021000e-02
-0.25491700 8.98553000e-02
-0.22491700 1.13050000e-01
-0.19491700 1.48578000e-01
-0.16491700 2.04334000e-01
-0.13491700 3.04624000e-01
-0.10491700 5.01421000e-01
-0.07491730 8.91400000e-01
-0.04491730 1.39985000e+00
-0.01491730 1.26234000e+00
0.01508270 7.40079000e-01
0.04508270 4.23497000e-01
0.07508270 2.66310000e-01
0.10508300 1.85211000e-01
0.13508300 1.39187000e-01
0.16508300 1.07930000e-01
0.19508300 8.74402000e-02
0.22508300 7.53669000e-02
0.25508300 7.00744000e-02
0.28508300 7.25333000e-02
0.31508300 8.61041000e-02
0.34508300 1.01321000e-01
0.37508300 8.50553000e-02
0.40508300 6.09305000e-02
0.43508300 4.69847000e-02
0.46508300 3.94928000e-02
0.49508300 3.52062000e-02
0.52508300 3.26710000e-02
0.55508300 3.12706000e-02
0.58508300 3.07820000e-02
0.61508300 3.12355000e-02
0.64508300 3.29470000e-02
0.67508300 3.67425000e-02
0.70508300 4.43092000e-02
0.73508300 5.59365000e-02
0.76508300 6.32161000e-02
