# E(MeV)  S_GAMTGAMT(K=0) for Br88_DDPCX
-9.85960000 1.13688000e-03
-9.82960000 1.12755000e-03
-9.79960000 1.11204000e-03
-9.76960000 1.08834000e-03
-9.73960000 1.05325000e-03
-9.70960000 1.00165000e-03
-9.67960000 9.25020000e-04
-9.64960000 8.08463000e-04
-9.61960000 6.24385000e-04
-9.58960000 3.17897000e-04
-9.55960000 -2.29016000e-04
-9.52960000 -1.28529000e-03
-9.49960000 -3.39861000e-03
-9.46960000 -6.52371000e-03
-9.43960000 -6.44575000e-03
-9.40960000 -3.29523000e-03
-9.37960000 -1.19833000e-03
-9.34960000 -1.41545000e-04
-9.31960000 4.16192000e-04
-9.28960000 7.38091000e-04
-9.25960000 9.39747000e-04
-9.22960000 1.07506000e-03
-9.19960000 1.17119000e-03
-9.16960000 1.24288000e-03
-9.13960000 1.29858000e-03
-9.10960000 1.34345000e-03
-9.07960000 1.38073000e-03
-9.04960000 1.41257000e-03
-9.01960000 1.44040000e-03
-8.98960000 1.46525000e-03
-8.95960000 1.48784000e-03
-8.92960000 1.50869000e-03
-8.89960000 1.52820000e-03
-8.86960000 1.54666000e-03
-8.83960000 1.56431000e-03
-8.79242000 1.59084000e-03
-8.76242000 1.60712000e-03
-8.73242000 1.62308000e-03
-8.70242000 1.63879000e-03
-8.67242000 1.65432000e-03
-8.64242000 1.66974000e-03
-8.61242000 1.68508000e-03
-8.58242000 1.70039000e-03
-8.55242000 1.71570000e-03
-8.52242000 1.73104000e-03
-8.49242000 1.74645000e-03
-8.46242000 1.76195000e-03
-8.43242000 1.77755000e-03
-8.40242000 1.79327000e-03
-8.37242000 1.80915000e-03
-8.34242000 1.82518000e-03
-8.31242000 1.84140000e-03
-8.28242000 1.85780000e-03
-8.25242000 1.87442000e-03
-8.22242000 1.89125000e-03
-8.19242000 1.90832000e-03
-8.16242000 1.92564000e-03
-8.13242000 1.94322000e-03
-8.10242000 1.96107000e-03
-8.07242000 1.97921000e-03
-8.04242000 1.99765000e-03
-8.01242000 2.01640000e-03
-7.98242000 2.03548000e-03
-7.95242000 2.05489000e-03
-7.92242000 2.07466000e-03
-7.89242000 2.09480000e-03
-7.86242000 2.11532000e-03
-7.83242000 2.13623000e-03
-7.80242000 2.15756000e-03
-7.77242000 2.17931000e-03
-7.72523000 2.21443000e-03
-7.69523000 2.23736000e-03
-7.66523000 2.26078000e-03
-7.63523000 2.28470000e-03
-7.60523000 2.30916000e-03
-7.57523000 2.33416000e-03
-7.54523000 2.35972000e-03
-7.51523000 2.38588000e-03
-7.48523000 2.41265000e-03
-7.45523000 2.44006000e-03
-7.42523000 2.46814000e-03
-7.39523000 2.49690000e-03
-7.36523000 2.52639000e-03
-7.33523000 2.55662000e-03
-7.30523000 2.58763000e-03
-7.27523000 2.61946000e-03
-7.24523000 2.65213000e-03
-7.21523000 2.68569000e-03
-7.18523000 2.72017000e-03
-7.15523000 2.75561000e-03
-7.12523000 2.79206000e-03
-7.09523000 2.82955000e-03
-7.06523000 2.86815000e-03
-7.03523000 2.90790000e-03
-7.00523000 2.94885000e-03
-6.97523000 2.99107000e-03
-6.94523000 3.03460000e-03
-6.91523000 3.07953000e-03
-6.88523000 3.12591000e-03
-6.85523000 3.17382000e-03
-6.82523000 3.22334000e-03
-6.79523000 3.27456000e-03
-6.76523000 3.32755000e-03
-6.73523000 3.38243000e-03
-6.70523000 3.43928000e-03
-6.65804000 3.53298000e-03
-6.62804000 3.59545000e-03
-6.59804000 3.66034000e-03
-6.56804000 3.72778000e-03
-6.53804000 3.79793000e-03
-6.50804000 3.87095000e-03
-6.47804000 3.94703000e-03
-6.44804000 4.02635000e-03
-6.41804000 4.10913000e-03
-6.38804000 4.19560000e-03
-6.35804000 4.28602000e-03
-6.32804000 4.38064000e-03
-6.29804000 4.47978000e-03
-6.26804000 4.58376000e-03
-6.23804000 4.69294000e-03
-6.20804000 4.80773000e-03
-6.17804000 4.92857000e-03
-6.14804000 5.05595000e-03
-6.11804000 5.19042000e-03
-6.08804000 5.33260000e-03
-6.05804000 5.48320000e-03
-6.02804000 5.64300000e-03
-5.99804000 5.81292000e-03
-5.96804000 5.99401000e-03
-5.93804000 6.18751000e-03
-5.90804000 6.39486000e-03
-5.87804000 6.61782000e-03
-5.84804000 6.85852000e-03
-5.81804000 7.11963000e-03
-5.78804000 7.40455000e-03
-5.75804000 7.71778000e-03
-5.72804000 8.06543000e-03
-5.69804000 8.45624000e-03
-5.66804000 8.90320000e-03
-5.63804000 9.42686000e-03
-5.59085000 1.04980000e-02
-5.56085000 1.14560000e-02
-5.53085000 1.28372000e-02
-5.50085000 1.50652000e-02
-5.47085000 1.90592000e-02
-5.44085000 2.55650000e-02
-5.41085000 2.85795000e-02
-5.38085000 2.36908000e-02
-5.35085000 1.97926000e-02
-5.32085000 1.82877000e-02
-5.29085000 1.80578000e-02
-5.26085000 1.84959000e-02
-5.23085000 1.93495000e-02
-5.20085000 2.05187000e-02
-5.17085000 2.19732000e-02
-5.14085000 2.37190000e-02
-5.11085000 2.57866000e-02
-5.08085000 2.82273000e-02
-5.05085000 3.11142000e-02
-5.02085000 3.45474000e-02
-4.99085000 3.86624000e-02
-4.96085000 4.36430000e-02
-4.93085000 4.97426000e-02
-4.90085000 5.73165000e-02
-4.87085000 6.68737000e-02
-4.84085000 7.91633000e-02
-4.81085000 9.53219000e-02
-4.78085000 1.17137000e-01
-4.75085000 1.47542000e-01
-4.72085000 1.91598000e-01
-4.69085000 2.58577000e-01
-4.66085000 3.66699000e-01
-4.63085000 5.54674000e-01
-4.60085000 9.10306000e-01
-4.57085000 1.62075000e+00
-4.52367000 3.17352000e+00
-4.49367000 2.41498000e+00
-4.46367000 1.35365000e+00
-4.43367000 7.76769000e-01
-4.40367000 4.86149000e-01
-4.37367000 3.28611000e-01
-4.34367000 2.35861000e-01
-4.31367000 1.77326000e-01
-4.28367000 1.38271000e-01
-4.25367000 1.11029000e-01
-4.22367000 9.13334000e-02
-4.19367000 7.66736000e-02
-4.16367000 6.54992000e-02
-4.13367000 5.68140000e-02
-4.10367000 4.99566000e-02
-4.07367000 4.44752000e-02
-4.04367000 4.00543000e-02
-4.01367000 3.64696000e-02
-3.98367000 3.35606000e-02
-3.95367000 3.12121000e-02
-3.92367000 2.93433000e-02
-3.89367000 2.79010000e-02
-3.86367000 2.68558000e-02
-3.83367000 2.62017000e-02
-3.80367000 2.59591000e-02
-3.77367000 2.61817000e-02
-3.74367000 2.69709000e-02
-3.71367000 2.85036000e-02
-3.68367000 3.10838000e-02
-3.65367000 3.52475000e-02
-3.62367000 4.19826000e-02
-3.59367000 5.32285000e-02
-3.56367000 7.30867000e-02
-3.53367000 1.10827000e-01
-3.50367000 1.86523000e-01
-3.45648000 3.66686000e-01
-3.42648000 2.96439000e-01
-3.39648000 1.81175000e-01
-3.36648000 1.23727000e-01
-3.33648000 9.16454000e-02
-3.30648000 6.32087000e-02
-3.27648000 4.49919000e-02
-3.24648000 3.44545000e-02
-3.21648000 2.80314000e-02
-3.18648000 2.39073000e-02
-3.15648000 2.12322000e-02
-3.12648000 1.96189000e-02
-3.09648000 1.87257000e-02
-3.06648000 1.83199000e-02
-3.03648000 1.91391000e-02
-3.00648000 2.23391000e-02
-2.97648000 2.89236000e-02
-2.94648000 3.20244000e-02
-2.91648000 2.46845000e-02
-2.88648000 1.80533000e-02
-2.85648000 1.44905000e-02
-2.82648000 1.25412000e-02
-2.79648000 1.13625000e-02
-2.76648000 1.05815000e-02
-2.73648000 1.00261000e-02
-2.70648000 9.61005000e-03
-2.67648000 9.28644000e-03
-2.64648000 9.02790000e-03
-2.61648000 8.81751000e-03
-2.58648000 8.64423000e-03
-2.55648000 8.50056000e-03
-2.52648000 8.38124000e-03
-2.49648000 8.28247000e-03
-2.46648000 8.20148000e-03
-2.43648000 8.13621000e-03
-2.38929000 8.06188000e-03
-2.35929000 8.03115000e-03
-2.32929000 8.01264000e-03
-2.29929000 8.00621000e-03
-2.26929000 8.01215000e-03
-2.23929000 8.03124000e-03
-2.20929000 8.06498000e-03
-2.17929000 8.11593000e-03
-2.14929000 8.18835000e-03
-2.11929000 8.28947000e-03
-2.08929000 8.43199000e-03
-2.05929000 8.63952000e-03
-2.02929000 8.95919000e-03
-1.99929000 9.49272000e-03
-1.96929000 1.04705000e-02
-1.93929000 1.23206000e-02
-1.90929000 1.46334000e-02
-1.87929000 1.41009000e-02
-1.84929000 1.21555000e-02
-1.81929000 1.12600000e-02
-1.78929000 1.13042000e-02
-1.75929000 1.22370000e-02
-1.72929000 1.45040000e-02
-1.69929000 1.79384000e-02
-1.66929000 1.78054000e-02
-1.63929000 1.44251000e-02
-1.60929000 1.22630000e-02
-1.57929000 1.12595000e-02
-1.54929000 1.08228000e-02
-1.51929000 1.06686000e-02
-1.48929000 1.06743000e-02
-1.45929000 1.07865000e-02
-1.42929000 1.09836000e-02
-1.39929000 1.12619000e-02
-1.36929000 1.16314000e-02
-1.32210000 1.24655000e-02
-1.29210000 1.32465000e-02
-1.26210000 1.43653000e-02
-1.23210000 1.60794000e-02
-1.20210000 1.89415000e-02
-1.17210000 2.42098000e-02
-1.14210000 3.44742000e-02
-1.11210000 4.98480000e-02
-1.08210000 5.06260000e-02
-1.05210000 3.59705000e-02
-1.02210000 2.61629000e-02
-0.99210500 2.14741000e-02
-0.96210500 1.92774000e-02
-0.93210500 1.82838000e-02
-0.90210500 1.79321000e-02
-0.87210500 1.79659000e-02
-0.84210500 1.82620000e-02
-0.81210500 1.87602000e-02
-0.78210500 1.94339000e-02
-0.75210500 2.02758000e-02
-0.72210500 2.12927000e-02
-0.69210500 2.25032000e-02
-0.66210500 2.39379000e-02
-0.63210500 2.56423000e-02
-0.60210500 2.76826000e-02
-0.57210500 3.01468000e-02
-0.54210500 3.31456000e-02
-0.51210500 3.69117000e-02
-0.48210500 4.18504000e-02
-0.45210500 4.84732000e-02
-0.42210500 5.62970000e-02
-0.39210500 6.50068000e-02
-0.36210500 7.76144000e-02
-0.33210500 9.39198000e-02
-0.30210500 1.13764000e-01
-0.25491700 1.70695000e-01
-0.22491700 2.36888000e-01
-0.19491700 3.53522000e-01
-0.16491700 5.79055000e-01
-0.13491700 1.02935000e+00
-0.10491700 1.69014000e+00
-0.07491730 1.66583000e+00
-0.04491730 1.00301000e+00
-0.01491730 5.65470000e-01
0.01508270 3.46243000e-01
0.04508270 2.31681000e-01
0.07508270 1.66712000e-01
0.10508300 1.27241000e-01
0.13508300 1.02189000e-01
0.16508300 8.55991000e-02
0.19508300 7.28474000e-02
0.22508300 6.31172000e-02
0.25508300 5.61943000e-02
0.28508300 5.06112000e-02
0.31508300 4.62982000e-02
0.34508300 4.33483000e-02
0.37508300 4.16469000e-02
0.40508300 4.09270000e-02
0.43508300 3.96361000e-02
0.46508300 3.78666000e-02
0.49508300 3.64856000e-02
0.52508300 3.56368000e-02
0.55508300 3.53466000e-02
0.58508300 3.54940000e-02
0.61508300 3.60202000e-02
0.64508300 3.69232000e-02
0.67508300 3.82406000e-02
0.70508300 4.00487000e-02
0.73508300 4.24725000e-02
0.76508300 4.57085000e-02
