# E(MeV)  S_GAMTGAMT(K=1) for Br88_DDPCX
-9.85960000 8.24261000e-04
-9.82960000 8.81857000e-04
-9.79960000 9.27817000e-04
-9.76960000 9.65259000e-04
-9.73960000 9.96283000e-04
-9.70960000 1.02232000e-03
-9.67960000 1.04436000e-03
-9.64960000 1.06305000e-03
-9.61960000 1.07877000e-03
-9.58960000 1.09167000e-03
-9.55960000 1.10163000e-03
-9.52960000 1.10816000e-03
-9.49960000 1.11019000e-03
-9.46960000 1.10564000e-03
-9.43960000 1.09030000e-03
-9.40960000 1.05537000e-03
-9.37960000 9.81119000e-04
-9.34960000 8.22840000e-04
-9.31960000 5.14616000e-04
-9.28960000 2.51313000e-04
-9.25960000 5.13058000e-04
-9.22960000 8.50636000e-04
-9.19960000 1.03697000e-03
-9.16960000 1.13581000e-03
-9.13960000 1.19397000e-03
-9.10960000 1.23223000e-03
-9.07960000 1.25995000e-03
-9.04960000 1.28165000e-03
-9.01960000 1.29969000e-03
-8.98960000 1.31540000e-03
-8.95960000 1.32956000e-03
-8.92960000 1.34266000e-03
-8.89960000 1.35501000e-03
-8.86960000 1.36684000e-03
-8.83960000 1.37830000e-03
-8.79242000 1.39579000e-03
-8.76242000 1.40670000e-03
-8.73242000 1.41749000e-03
-8.70242000 1.42823000e-03
-8.67242000 1.43893000e-03
-8.64242000 1.44962000e-03
-8.61242000 1.46032000e-03
-8.58242000 1.47105000e-03
-8.55242000 1.48183000e-03
-8.52242000 1.49266000e-03
-8.49242000 1.50357000e-03
-8.46242000 1.51455000e-03
-8.43242000 1.52562000e-03
-8.40242000 1.53679000e-03
-8.37242000 1.54807000e-03
-8.34242000 1.55945000e-03
-8.31242000 1.57096000e-03
-8.28242000 1.58259000e-03
-8.25242000 1.59436000e-03
-8.22242000 1.60626000e-03
-8.19242000 1.61831000e-03
-8.16242000 1.63050000e-03
-8.13242000 1.64286000e-03
-8.10242000 1.65537000e-03
-8.07242000 1.66806000e-03
-8.04242000 1.68092000e-03
-8.01242000 1.69396000e-03
-7.98242000 1.70719000e-03
-7.95242000 1.72061000e-03
-7.92242000 1.73423000e-03
-7.89242000 1.74806000e-03
-7.86242000 1.76210000e-03
-7.83242000 1.77636000e-03
-7.80242000 1.79085000e-03
-7.77242000 1.80557000e-03
-7.72523000 1.82921000e-03
-7.69523000 1.84457000e-03
-7.66523000 1.86019000e-03
-7.63523000 1.87608000e-03
-7.60523000 1.89225000e-03
-7.57523000 1.90870000e-03
-7.54523000 1.92546000e-03
-7.51523000 1.94252000e-03
-7.48523000 1.95990000e-03
-7.45523000 1.97760000e-03
-7.42523000 1.99565000e-03
-7.39523000 2.01404000e-03
-7.36523000 2.03280000e-03
-7.33523000 2.05194000e-03
-7.30523000 2.07146000e-03
-7.27523000 2.09138000e-03
-7.24523000 2.11172000e-03
-7.21523000 2.13249000e-03
-7.18523000 2.15370000e-03
-7.15523000 2.17538000e-03
-7.12523000 2.19753000e-03
-7.09523000 2.22019000e-03
-7.06523000 2.24336000e-03
-7.03523000 2.26707000e-03
-7.00523000 2.29133000e-03
-6.97523000 2.31618000e-03
-6.94523000 2.34162000e-03
-6.91523000 2.36769000e-03
-6.88523000 2.39442000e-03
-6.85523000 2.42182000e-03
-6.82523000 2.44994000e-03
-6.79523000 2.47879000e-03
-6.76523000 2.50841000e-03
-6.73523000 2.53884000e-03
-6.70523000 2.57010000e-03
-6.65804000 2.62107000e-03
-6.62804000 2.65468000e-03
-6.59804000 2.68928000e-03
-6.56804000 2.72491000e-03
-6.53804000 2.76163000e-03
-6.50804000 2.79949000e-03
-6.47804000 2.83855000e-03
-6.44804000 2.87888000e-03
-6.41804000 2.92053000e-03
-6.38804000 2.96358000e-03
-6.35804000 3.00811000e-03
-6.32804000 3.05420000e-03
-6.29804000 3.10195000e-03
-6.26804000 3.15145000e-03
-6.23804000 3.20282000e-03
-6.20804000 3.25617000e-03
-6.17804000 3.31165000e-03
-6.14804000 3.36939000e-03
-6.11804000 3.42957000e-03
-6.08804000 3.49238000e-03
-6.05804000 3.55804000e-03
-6.02804000 3.62682000e-03
-5.99804000 3.69902000e-03
-5.96804000 3.77502000e-03
-5.93804000 3.85532000e-03
-5.90804000 3.94055000e-03
-5.87804000 4.03159000e-03
-5.84804000 4.12969000e-03
-5.81804000 4.23676000e-03
-5.78804000 4.35592000e-03
-5.75804000 4.49258000e-03
-5.72804000 4.65701000e-03
-5.69804000 4.87042000e-03
-5.66804000 5.18016000e-03
-5.63804000 5.68966000e-03
-5.59085000 6.87868000e-03
-5.56085000 6.69101000e-03
-5.53085000 6.17321000e-03
-5.50085000 5.95242000e-03
-5.47085000 5.93170000e-03
-5.44085000 6.01098000e-03
-5.41085000 6.14556000e-03
-5.38085000 6.31638000e-03
-5.35085000 6.51526000e-03
-5.32085000 6.73896000e-03
-5.29085000 6.98676000e-03
-5.26085000 7.25942000e-03
-5.23085000 7.55879000e-03
-5.20085000 7.88756000e-03
-5.17085000 8.24936000e-03
-5.14085000 8.64879000e-03
-5.11085000 9.09175000e-03
-5.08085000 9.58577000e-03
-5.05085000 1.01406000e-02
-5.02085000 1.07694000e-02
-4.99085000 1.14899000e-02
-4.96085000 1.23277000e-02
-4.93085000 1.33210000e-02
-4.90085000 1.45302000e-02
-4.87085000 1.60580000e-02
-4.84085000 1.80925000e-02
-4.81085000 2.10119000e-02
-4.78085000 2.56430000e-02
-4.75085000 3.38100000e-02
-4.72085000 4.77380000e-02
-4.69085000 5.77522000e-02
-4.66085000 4.91505000e-02
-4.63085000 4.05358000e-02
-4.60085000 3.78133000e-02
-4.57085000 3.86649000e-02
-4.52367000 4.43375000e-02
-4.49367000 5.03308000e-02
-4.46367000 5.85020000e-02
-4.43367000 6.95502000e-02
-4.40367000 8.46836000e-02
-4.37367000 1.05950000e-01
-4.34367000 1.36928000e-01
-4.31367000 1.84223000e-01
-4.28367000 2.60883000e-01
-4.25367000 3.94767000e-01
-4.22367000 6.49188000e-01
-4.19367000 1.15708000e+00
-4.16367000 1.95562000e+00
-4.13367000 2.06067000e+00
-4.10367000 1.27225000e+00
-4.07367000 7.09718000e-01
-4.04367000 4.26614000e-01
-4.01367000 2.79850000e-01
-3.98367000 1.97269000e-01
-3.95367000 1.47263000e-01
-3.92367000 1.15232000e-01
-3.89367000 9.39145000e-02
-3.86367000 7.94705000e-02
-3.83367000 6.98124000e-02
-3.80367000 6.38656000e-02
-3.77367000 6.12890000e-02
-3.74367000 6.25237000e-02
-3.71367000 6.92684000e-02
-3.68367000 8.52693000e-02
-3.65367000 1.11934000e-01
-3.62367000 1.37107000e-01
-3.59367000 1.82758000e-01
-3.56367000 2.80586000e-01
-3.53367000 3.31898000e-01
-3.50367000 2.31207000e-01
-3.45648000 1.12035000e-01
-3.42648000 8.29866000e-02
-3.39648000 6.32274000e-02
-3.36648000 5.08976000e-02
-3.33648000 4.62707000e-02
-3.30648000 4.80286000e-02
-3.27648000 4.84054000e-02
-3.24648000 3.98749000e-02
-3.21648000 3.28006000e-02
-3.18648000 2.94540000e-02
-3.15648000 2.84910000e-02
-3.12648000 2.93395000e-02
-3.09648000 3.22078000e-02
-3.06648000 3.78399000e-02
-3.03648000 4.54674000e-02
-3.00648000 5.40365000e-02
-2.97648000 7.10100000e-02
-2.94648000 1.07112000e-01
-2.91648000 1.80771000e-01
-2.88648000 2.84892000e-01
-2.85648000 2.72073000e-01
-2.82648000 1.68122000e-01
-2.79648000 1.03533000e-01
-2.76648000 7.45343000e-02
-2.73648000 6.58723000e-02
-2.70648000 7.39486000e-02
-2.67648000 9.56566000e-02
-2.64648000 9.32485000e-02
-2.61648000 6.25671000e-02
-2.58648000 4.14321000e-02
-2.55648000 3.05479000e-02
-2.52648000 2.49424000e-02
-2.49648000 2.21153000e-02
-2.46648000 2.00979000e-02
-2.43648000 1.82991000e-02
-2.38929000 1.77851000e-02
-2.35929000 1.95203000e-02
-2.32929000 2.42169000e-02
-2.29929000 3.27028000e-02
-2.26929000 3.50619000e-02
-2.23929000 2.60685000e-02
-2.20929000 1.90247000e-02
-2.17929000 1.54532000e-02
-2.14929000 1.36714000e-02
-2.11929000 1.28003000e-02
-2.08929000 1.24857000e-02
-2.05929000 1.26218000e-02
-2.02929000 1.32654000e-02
-1.99929000 1.46703000e-02
-1.96929000 1.74760000e-02
-1.93929000 2.31601000e-02
-1.90929000 3.38828000e-02
-1.87929000 4.33216000e-02
-1.84929000 3.71774000e-02
-1.81929000 3.11848000e-02
-1.78929000 3.27084000e-02
-1.75929000 3.16546000e-02
-1.72929000 2.33102000e-02
-1.69929000 1.72587000e-02
-1.66929000 1.41315000e-02
-1.63929000 1.24959000e-02
-1.60929000 1.16151000e-02
-1.57929000 1.11709000e-02
-1.54929000 1.10364000e-02
-1.51929000 1.11932000e-02
-1.48929000 1.17273000e-02
-1.45929000 1.29025000e-02
-1.42929000 1.53644000e-02
-1.39929000 2.02139000e-02
-1.36929000 2.53315000e-02
-1.32210000 1.87338000e-02
-1.29210000 1.46244000e-02
-1.26210000 1.26111000e-02
-1.23210000 1.16339000e-02
-1.20210000 1.11598000e-02
-1.17210000 1.09591000e-02
-1.14210000 1.09325000e-02
-1.11210000 1.10418000e-02
-1.08210000 1.12889000e-02
-1.05210000 1.17202000e-02
-1.02210000 1.24595000e-02
-0.99210500 1.36982000e-02
-0.96210500 1.50097000e-02
-0.93210500 1.54990000e-02
-0.90210500 1.66286000e-02
-0.87210500 1.88167000e-02
-0.84210500 2.00719000e-02
-0.81210500 2.17556000e-02
-0.78210500 2.69308000e-02
-0.75210500 3.54611000e-02
-0.72210500 3.64679000e-02
-0.69210500 3.02083000e-02
-0.66210500 2.79034000e-02
-0.63210500 3.07600000e-02
-0.60210500 3.95301000e-02
-0.57210500 5.33912000e-02
-0.54210500 6.87577000e-02
-0.51210500 7.97676000e-02
-0.48210500 7.16475000e-02
-0.45210500 4.95713000e-02
-0.42210500 3.47921000e-02
-0.39210500 2.77065000e-02
-0.36210500 2.37668000e-02
-0.33210500 2.10046000e-02
-0.30210500 1.93924000e-02
-0.25491700 1.83030000e-02
-0.22491700 1.81690000e-02
-0.19491700 1.84090000e-02
-0.16491700 1.91127000e-02
-0.13491700 2.01278000e-02
-0.10491700 2.03768000e-02
-0.07491730 1.99306000e-02
-0.04491730 1.97815000e-02
-0.01491730 2.00330000e-02
0.01508270 2.05595000e-02
0.04508270 2.13172000e-02
0.07508270 2.23352000e-02
0.10508300 2.37404000e-02
0.13508300 2.56487000e-02
0.16508300 2.74015000e-02
0.19508300 2.89088000e-02
0.22508300 3.12394000e-02
0.25508300 3.51615000e-02
0.28508300 4.14605000e-02
0.31508300 4.81953000e-02
0.34508300 5.55447000e-02
0.37508300 7.17452000e-02
0.40508300 1.03415000e-01
0.43508300 1.32700000e-01
0.46508300 1.27667000e-01
0.49508300 1.20874000e-01
0.52508300 9.99774000e-02
0.55508300 8.00913000e-02
0.58508300 7.39516000e-02
0.61508300 7.94080000e-02
0.64508300 9.86380000e-02
0.67508300 1.39898000e-01
0.70508300 1.87956000e-01
0.73508300 1.66304000e-01
0.76508300 1.18825000e-01
