# E(MeV)  S_NSDRNSDR(K=0) for Cd123_DDPCX
-6.39584000 -2.00082000e-02
-6.36584000 -1.94079000e-02
-6.33584000 -1.88165000e-02
-6.30584000 -1.82337000e-02
-6.27584000 -1.76589000e-02
-6.24584000 -1.70917000e-02
-6.21584000 -1.65319000e-02
-6.18584000 -1.59789000e-02
-6.15584000 -1.54325000e-02
-6.12584000 -1.48922000e-02
-6.09584000 -1.43577000e-02
-6.06584000 -1.38286000e-02
-6.03584000 -1.33046000e-02
-6.00584000 -1.27852000e-02
-5.97584000 -1.22703000e-02
-5.94584000 -1.17593000e-02
-5.91584000 -1.12520000e-02
-5.88584000 -1.07480000e-02
-5.85584000 -1.02469000e-02
-5.82584000 -9.74842000e-03
-5.79584000 -9.25217000e-03
-5.76584000 -8.75779000e-03
-5.73584000 -8.26490000e-03
-5.70584000 -7.77313000e-03
-5.67503000 -7.26882000e-03
-5.64503000 -6.77813000e-03
-5.61503000 -6.28738000e-03
-5.58503000 -5.79613000e-03
-5.55503000 -5.30397000e-03
-5.52503000 -4.81044000e-03
-5.49503000 -4.31510000e-03
-5.46503000 -3.81746000e-03
-5.43503000 -3.31702000e-03
-5.40503000 -2.81326000e-03
-5.37503000 -2.30562000e-03
-5.34503000 -1.79354000e-03
-5.31503000 -1.27641000e-03
-5.28503000 -7.53574000e-04
-5.25503000 -2.24367000e-04
-5.22503000 3.11939000e-04
-5.19503000 8.56109000e-04
-5.16503000 1.40896000e-03
-5.13503000 1.97138000e-03
-5.10503000 2.54428000e-03
-5.07503000 3.12869000e-03
-5.04503000 3.72568000e-03
-5.01503000 4.33642000e-03
-4.98503000 4.96217000e-03
-4.95422000 5.62190000e-03
-4.92422000 6.28238000e-03
-4.89422000 6.96237000e-03
-4.86422000 7.66363000e-03
-4.83422000 8.38808000e-03
-4.80422000 9.13782000e-03
-4.77422000 9.91515000e-03
-4.74422000 1.07226000e-02
-4.71422000 1.15630000e-02
-4.68422000 1.24394000e-02
-4.65422000 1.33552000e-02
-4.62422000 1.43143000e-02
-4.59422000 1.53208000e-02
-4.56422000 1.63794000e-02
-4.53422000 1.74955000e-02
-4.50422000 1.86749000e-02
-4.47422000 1.99243000e-02
-4.44422000 2.12512000e-02
-4.41422000 2.26642000e-02
-4.38422000 2.41728000e-02
-4.35422000 2.57881000e-02
-4.32422000 2.75228000e-02
-4.29422000 2.93913000e-02
-4.26422000 3.14103000e-02
-4.23341000 3.36611000e-02
-4.20341000 3.60481000e-02
-4.17341000 3.86547000e-02
-4.14341000 4.15121000e-02
-4.11341000 4.46571000e-02
-4.08341000 4.81333000e-02
-4.05341000 5.19933000e-02
-4.02341000 5.63000000e-02
-3.99341000 6.11300000e-02
-3.96341000 6.65768000e-02
-3.93341000 7.27557000e-02
-3.90341000 7.98102000e-02
-3.87341000 8.79207000e-02
-3.84341000 9.73163000e-02
-3.81341000 1.08291000e-01
-3.78341000 1.21230000e-01
-3.75341000 1.36639000e-01
-3.72341000 1.55200000e-01
-3.69341000 1.77845000e-01
-3.66341000 2.05877000e-01
-3.63341000 2.41159000e-01
-3.60341000 2.86426000e-01
-3.57341000 3.45824000e-01
-3.54341000 4.25864000e-01
-3.51260000 5.40816000e-01
-3.48260000 7.03621000e-01
-3.45260000 9.51125000e-01
-3.42260000 1.35085000e+00
-3.39260000 2.04568000e+00
-3.36260000 3.34881000e+00
-3.33260000 5.88824000e+00
-3.30260000 1.00624000e+01
-3.27260000 1.13699000e+01
-3.24260000 7.28326000e+00
-3.21260000 4.04033000e+00
-3.18260000 2.39193000e+00
-3.15260000 1.54260000e+00
-3.12260000 1.06719000e+00
-3.09260000 7.79352000e-01
-3.06260000 5.93527000e-01
-3.03260000 4.67241000e-01
-3.00260000 3.77802000e-01
-2.97260000 3.12296000e-01
-2.94260000 2.62972000e-01
-2.91260000 2.24964000e-01
-2.88260000 1.95102000e-01
-2.85260000 1.71246000e-01
-2.82260000 1.51918000e-01
-2.79179000 1.35677000e-01
-2.76179000 1.22603000e-01
-2.73179000 1.11666000e-01
-2.70179000 1.02447000e-01
-2.67179000 9.46244000e-02
-2.64179000 8.79514000e-02
-2.61179000 8.22345000e-02
-2.58179000 7.73209000e-02
-2.55179000 7.30891000e-02
-2.52179000 6.94416000e-02
-2.49179000 6.62998000e-02
-2.46179000 6.36001000e-02
-2.43179000 6.12910000e-02
-2.40179000 5.93308000e-02
-2.37179000 5.76859000e-02
-2.34179000 5.63298000e-02
-2.31179000 5.52418000e-02
-2.28179000 5.44064000e-02
-2.25179000 5.38131000e-02
-2.22179000 5.34556000e-02
-2.19179000 5.33322000e-02
-2.16179000 5.34458000e-02
-2.13179000 5.38037000e-02
-2.10179000 5.44188000e-02
-2.07097000 5.53379000e-02
-2.04097000 5.65391000e-02
-2.01097000 5.80775000e-02
-1.98097000 5.99985000e-02
-1.95097000 6.23614000e-02
-1.92097000 6.52433000e-02
-1.89097000 6.87457000e-02
-1.86097000 7.30024000e-02
-1.83097000 7.81933000e-02
-1.80097000 8.45640000e-02
-1.77097000 9.24575000e-02
-1.74097000 1.02367000e-01
-1.71097000 1.15025000e-01
-1.68097000 1.31575000e-01
-1.65097000 1.53910000e-01
-1.62097000 1.85404000e-01
-1.59097000 2.32624000e-01
-1.56097000 3.08947000e-01
-1.53097000 4.33602000e-01
-1.50097000 5.68247000e-01
-1.47097000 6.37861000e-01
-1.44097000 7.84026000e-01
-1.41097000 1.13448000e+00
-1.38097000 1.87342000e+00
-1.35016000 3.37707000e+00
-1.32016000 4.89167000e+00
-1.29016000 3.89110000e+00
-1.26016000 2.20749000e+00
-1.23016000 1.26992000e+00
-1.20016000 7.98584000e-01
-1.17016000 5.44492000e-01
-1.14016000 3.95622000e-01
-1.11016000 3.02031000e-01
-1.08016000 2.39776000e-01
-1.05016000 1.96463000e-01
-1.02016000 1.65222000e-01
-0.99016400 1.42023000e-01
-0.96016400 1.24384000e-01
-0.93016400 1.10712000e-01
-0.90016400 9.99503000e-02
-0.87016400 9.13783000e-02
-0.84016400 8.44904000e-02
-0.81016400 7.89261000e-02
-0.78016400 7.44238000e-02
-0.75016400 7.07919000e-02
-0.72016400 6.78893000e-02
-0.69016400 6.56129000e-02
-0.66016400 6.38885000e-02
-0.62935200 6.26394000e-02
-0.59935200 6.19009000e-02
-0.56935200 6.16226000e-02
-0.53935200 6.18122000e-02
-0.50935200 6.24982000e-02
-0.47935200 6.37335000e-02
-0.44935200 6.56026000e-02
-0.41935200 6.82332000e-02
-0.38935200 7.18154000e-02
-0.35935200 7.66327000e-02
-0.32935200 8.31168000e-02
-0.29935200 9.19424000e-02
-0.26935200 1.04205000e-01
-0.23935200 1.21770000e-01
-0.20935200 1.48001000e-01
-0.17935200 1.89392000e-01
-0.14935200 2.59514000e-01
-0.11935200 3.88804000e-01
-0.08935230 6.43895000e-01
-0.05935230 1.08592000e+00
-0.02935230 1.30305000e+00
0.00064765 9.43121000e-01
0.03064770 6.23486000e-01
0.06064770 4.23603000e-01
0.09145880 3.14801000e-01
0.12145900 2.72103000e-01
0.15145900 2.68588000e-01
0.18145900 2.98966000e-01
0.21145900 3.73196000e-01
0.24145900 5.23684000e-01
0.27145900 8.30020000e-01
0.30145900 1.44129000e+00
0.33145900 2.19467000e+00
0.36145900 1.90891000e+00
0.39145900 1.11583000e+00
0.42145900 6.47069000e-01
0.45145900 4.11636000e-01
0.48145900 2.85812000e-01
0.51145900 2.12588000e-01
0.54145900 1.66724000e-01
0.57145900 1.36251000e-01
0.60145900 1.15032000e-01
0.63145900 9.96966000e-02
0.66145900 8.82847000e-02
0.69145900 7.96113000e-02
0.72145900 7.29551000e-02
0.75145900 6.78627000e-02
0.78145900 6.36918000e-02
