# E(MeV)  S_GAMTGAMT(Total=K0+2*K1) for Cd123_DDPCX
-6.39584000 8.31052000e-03
-6.36584000 8.37729000e-03
-6.33584000 8.44514000e-03
-6.30584000 8.51409000e-03
-6.27584000 8.58417000e-03
-6.24584000 8.65539000e-03
-6.21584000 8.72781000e-03
-6.18584000 8.80146000e-03
-6.15584000 8.87636000e-03
-6.12584000 8.95256000e-03
-6.09584000 9.03007000e-03
-6.06584000 9.10895000e-03
-6.03584000 9.18922000e-03
-6.00584000 9.27093000e-03
-5.97584000 9.35411000e-03
-5.94584000 9.43884000e-03
-5.91584000 9.52511000e-03
-5.88584000 9.61299000e-03
-5.85584000 9.70255000e-03
-5.82584000 9.79381000e-03
-5.79584000 9.88682000e-03
-5.76584000 9.98165000e-03
-5.73584000 1.00783500e-02
-5.70584000 1.01769900e-02
-5.67503000 1.02803400e-02
-5.64503000 1.03830600e-02
-5.61503000 1.04879100e-02
-5.58503000 1.05949400e-02
-5.55503000 1.07042300e-02
-5.52503000 1.08158500e-02
-5.49503000 1.09298800e-02
-5.46503000 1.10464100e-02
-5.43503000 1.11655100e-02
-5.40503000 1.12872700e-02
-5.37503000 1.14117900e-02
-5.34503000 1.15391800e-02
-5.31503000 1.16695200e-02
-5.28503000 1.18029200e-02
-5.25503000 1.19394900e-02
-5.22503000 1.20793700e-02
-5.19503000 1.22226600e-02
-5.16503000 1.23694700e-02
-5.13503000 1.25199800e-02
-5.10503000 1.26742900e-02
-5.07503000 1.28325800e-02
-5.04503000 1.29949900e-02
-5.01503000 1.31616800e-02
-4.98503000 1.33328400e-02
-4.95422000 1.35134600e-02
-4.92422000 1.36942200e-02
-4.89422000 1.38800300e-02
-4.86422000 1.40710900e-02
-4.83422000 1.42676300e-02
-4.80422000 1.44698800e-02
-4.77422000 1.46781100e-02
-4.74422000 1.48925700e-02
-4.71422000 1.51135300e-02
-4.68422000 1.53413200e-02
-4.65422000 1.55762500e-02
-4.62422000 1.58186300e-02
-4.59422000 1.60688100e-02
-4.56422000 1.63272000e-02
-4.53422000 1.65941800e-02
-4.50422000 1.68701800e-02
-4.47422000 1.71556500e-02
-4.44422000 1.74510900e-02
-4.41422000 1.77569700e-02
-4.38422000 1.80738900e-02
-4.35422000 1.84024000e-02
-4.32422000 1.87431600e-02
-4.29422000 1.90968100e-02
-4.26422000 1.94640800e-02
-4.23341000 1.98562600e-02
-4.20341000 2.02535700e-02
-4.17341000 2.06669900e-02
-4.14341000 2.10975100e-02
-4.11341000 2.15461400e-02
-4.08341000 2.20139800e-02
-4.05341000 2.25022800e-02
-4.02341000 2.30122800e-02
-3.99341000 2.35454200e-02
-3.96341000 2.41032100e-02
-3.93341000 2.46873000e-02
-3.90341000 2.52995000e-02
-3.87341000 2.59417900e-02
-3.84341000 2.66162700e-02
-3.81341000 2.73253300e-02
-3.78341000 2.80715500e-02
-3.75341000 2.88577500e-02
-3.72341000 2.96871500e-02
-3.69341000 3.05633000e-02
-3.66341000 3.14902000e-02
-3.63341000 3.24722000e-02
-3.60341000 3.35149000e-02
-3.57341000 3.46247000e-02
-3.54341000 3.58099000e-02
-3.51260000 3.71177000e-02
-3.48260000 3.84980000e-02
-3.45260000 4.00174000e-02
-3.42260000 4.17428000e-02
-3.39260000 4.37612000e-02
-3.36260000 4.57957000e-02
-3.33260000 4.73277000e-02
-3.30260000 4.89716000e-02
-3.27260000 5.09313000e-02
-3.24260000 5.31183000e-02
-3.21260000 5.55515000e-02
-3.18260000 5.82374000e-02
-3.15260000 6.11842000e-02
-3.12260000 6.44130000e-02
-3.09260000 6.79546000e-02
-3.06260000 7.18473000e-02
-3.03260000 7.61388000e-02
-3.00260000 8.08868000e-02
-2.97260000 8.61540000e-02
-2.94260000 9.19961000e-02
-2.91260000 9.85165000e-02
-2.88260000 1.05844500e-01
-2.85260000 1.14117200e-01
-2.82260000 1.23503100e-01
-2.79179000 1.34527500e-01
-2.76179000 1.46893100e-01
-2.73179000 1.61214400e-01
-2.70179000 1.77783900e-01
-2.67179000 1.97011700e-01
-2.64179000 2.19786700e-01
-2.61179000 2.47073900e-01
-2.58179000 2.80083900e-01
-2.55179000 3.20495000e-01
-2.52179000 3.70670000e-01
-2.49179000 4.33998000e-01
-2.46179000 5.15473000e-01
-2.43179000 6.22672000e-01
-2.40179000 7.67531000e-01
-2.37179000 9.69654000e-01
-2.34179000 1.26292300e+00
-2.31179000 1.70951800e+00
-2.28179000 2.43188400e+00
-2.25179000 3.69076000e+00
-2.22179000 6.07812000e+00
-2.19179000 1.08458800e+01
-2.16179000 1.84650000e+01
-2.13179000 1.98239400e+01
-2.10179000 1.23364600e+01
-2.07097000 6.74790000e+00
-2.04097000 4.03030000e+00
-2.01097000 2.61856500e+00
-1.98097000 1.82105800e+00
-1.95097000 1.33446900e+00
-1.92097000 1.01833400e+00
-1.89097000 8.02340000e-01
-1.86097000 6.48651000e-01
-1.83097000 5.35597000e-01
-1.80097000 4.50121000e-01
-1.77097000 3.83991000e-01
-1.74097000 3.31816000e-01
-1.71097000 2.89950100e-01
-1.68097000 2.55862800e-01
-1.65097000 2.27752700e-01
-1.62097000 2.04310900e-01
-1.59097000 1.84569300e-01
-1.56097000 1.67802400e-01
-1.53097000 1.53463500e-01
-1.50097000 1.41133100e-01
-1.47097000 1.30398500e-01
-1.44097000 1.20900400e-01
-1.41097000 1.12550700e-01
-1.38097000 1.05206800e-01
-1.35016000 9.85446000e-02
-1.32016000 9.27853000e-02
-1.29016000 8.76417000e-02
-1.26016000 8.30320000e-02
-1.23016000 7.88881000e-02
-1.20016000 7.51539000e-02
-1.17016000 7.17835000e-02
-1.14016000 6.87410000e-02
-1.11016000 6.60034000e-02
-1.08016000 6.35675000e-02
-1.05016000 6.14324000e-02
-1.02016000 5.94198000e-02
-0.99016400 5.74002000e-02
-0.96016400 5.56455000e-02
-0.93016400 5.42091000e-02
-0.90016400 5.27754000e-02
-0.87016400 5.11392000e-02
-0.84016400 4.96336000e-02
-0.81016400 4.83375000e-02
-0.78016400 4.71950000e-02
-0.75016400 4.61672000e-02
-0.72016400 4.52348000e-02
-0.69016400 4.43847000e-02
-0.66016400 4.36038000e-02
-0.62935200 4.28705000e-02
-0.59935200 4.22244000e-02
-0.56935200 4.16443000e-02
-0.53935200 4.11351000e-02
-0.50935200 4.07151000e-02
-0.47935200 4.04222000e-02
-0.44935200 4.02562000e-02
-0.41935200 3.99861000e-02
-0.38935200 3.94916000e-02
-0.35935200 3.89396000e-02
-0.32935200 3.85106000e-02
-0.29935200 3.81907000e-02
-0.26935200 3.79409000e-02
-0.23935200 3.77444000e-02
-0.20935200 3.75983000e-02
-0.17935200 3.75012000e-02
-0.14935200 3.74042000e-02
-0.11935200 3.72853000e-02
-0.08935230 3.71915000e-02
-0.05935230 3.71336000e-02
-0.02935230 3.71052000e-02
0.00064765 3.71051000e-02
0.03064770 3.71303000e-02
0.06064770 3.71784000e-02
0.09145880 3.72506000e-02
0.12145900 3.73422000e-02
0.15145900 3.74541000e-02
0.18145900 3.75863000e-02
0.21145900 3.77383000e-02
0.24145900 3.79100000e-02
0.27145900 3.81013000e-02
0.30145900 3.83122000e-02
0.33145900 3.85427000e-02
0.36145900 3.87929000e-02
0.39145900 3.90629000e-02
0.42145900 3.93530000e-02
0.45145900 3.96635000e-02
0.48145900 3.99947000e-02
0.51145900 4.03466000e-02
0.54145900 4.07200000e-02
0.57145900 4.11149000e-02
0.60145900 4.15324000e-02
0.63145900 4.19727000e-02
0.66145900 4.24367000e-02
0.69145900 4.29249000e-02
0.72145900 4.34382000e-02
0.75145900 4.39775000e-02
0.78145900 4.45436000e-02
