# E(MeV)  S_GAMTGAMT(K=1) for Cd123_DDPCX
-6.39584000 2.77646000e-03
-6.36584000 2.79876000e-03
-6.33584000 2.82143000e-03
-6.30584000 2.84446000e-03
-6.27584000 2.86787000e-03
-6.24584000 2.89166000e-03
-6.21584000 2.91585000e-03
-6.18584000 2.94045000e-03
-6.15584000 2.96547000e-03
-6.12584000 2.99092000e-03
-6.09584000 3.01681000e-03
-6.06584000 3.04316000e-03
-6.03584000 3.06997000e-03
-6.00584000 3.09726000e-03
-5.97584000 3.12504000e-03
-5.94584000 3.15334000e-03
-5.91584000 3.18215000e-03
-5.88584000 3.21150000e-03
-5.85584000 3.24141000e-03
-5.82584000 3.27189000e-03
-5.79584000 3.30295000e-03
-5.76584000 3.33462000e-03
-5.73584000 3.36691000e-03
-5.70584000 3.39985000e-03
-5.67503000 3.43436000e-03
-5.64503000 3.46866000e-03
-5.61503000 3.50367000e-03
-5.58503000 3.53941000e-03
-5.55503000 3.57590000e-03
-5.52503000 3.61317000e-03
-5.49503000 3.65124000e-03
-5.46503000 3.69015000e-03
-5.43503000 3.72991000e-03
-5.40503000 3.77056000e-03
-5.37503000 3.81213000e-03
-5.34503000 3.85466000e-03
-5.31503000 3.89817000e-03
-5.28503000 3.94270000e-03
-5.25503000 3.98829000e-03
-5.22503000 4.03498000e-03
-5.19503000 4.08281000e-03
-5.16503000 4.13181000e-03
-5.13503000 4.18205000e-03
-5.10503000 4.23355000e-03
-5.07503000 4.28638000e-03
-5.04503000 4.34058000e-03
-5.01503000 4.39621000e-03
-4.98503000 4.45333000e-03
-4.95422000 4.51360000e-03
-4.92422000 4.57392000e-03
-4.89422000 4.63592000e-03
-4.86422000 4.69967000e-03
-4.83422000 4.76525000e-03
-4.80422000 4.83273000e-03
-4.77422000 4.90220000e-03
-4.74422000 4.97375000e-03
-4.71422000 5.04746000e-03
-4.68422000 5.12345000e-03
-4.65422000 5.20182000e-03
-4.62422000 5.28267000e-03
-4.59422000 5.36612000e-03
-4.56422000 5.45230000e-03
-4.53422000 5.54135000e-03
-4.50422000 5.63340000e-03
-4.47422000 5.72860000e-03
-4.44422000 5.82713000e-03
-4.41422000 5.92913000e-03
-4.38422000 6.03481000e-03
-4.35422000 6.14435000e-03
-4.32422000 6.25797000e-03
-4.29422000 6.37588000e-03
-4.26422000 6.49833000e-03
-4.23341000 6.62908000e-03
-4.20341000 6.76153000e-03
-4.17341000 6.89935000e-03
-4.14341000 7.04286000e-03
-4.11341000 7.19240000e-03
-4.08341000 7.34834000e-03
-4.05341000 7.51109000e-03
-4.02341000 7.68107000e-03
-3.99341000 7.85875000e-03
-3.96341000 8.04464000e-03
-3.93341000 8.23929000e-03
-3.90341000 8.44330000e-03
-3.87341000 8.65733000e-03
-3.84341000 8.88208000e-03
-3.81341000 9.11835000e-03
-3.78341000 9.36700000e-03
-3.75341000 9.62897000e-03
-3.72341000 9.90534000e-03
-3.69341000 1.01973000e-02
-3.66341000 1.05062000e-02
-3.63341000 1.08335000e-02
-3.60341000 1.11811000e-02
-3.57341000 1.15512000e-02
-3.54341000 1.19467000e-02
-3.51260000 1.23835000e-02
-3.48260000 1.28454000e-02
-3.45260000 1.33556000e-02
-3.42260000 1.39388000e-02
-3.39260000 1.46271000e-02
-3.36260000 1.53165000e-02
-3.33260000 1.58107000e-02
-3.30260000 1.63386000e-02
-3.27260000 1.69808000e-02
-3.24260000 1.77065000e-02
-3.21260000 1.85156000e-02
-3.18260000 1.94087000e-02
-3.15260000 2.03886000e-02
-3.12260000 2.14623000e-02
-3.09260000 2.26401000e-02
-3.06260000 2.39348000e-02
-3.03260000 2.53625000e-02
-3.00260000 2.69428000e-02
-2.97260000 2.86960000e-02
-2.94260000 3.06369000e-02
-2.91260000 3.28014000e-02
-2.88260000 3.52351000e-02
-2.85260000 3.79832000e-02
-2.82260000 4.11013000e-02
-2.79179000 4.47640000e-02
-2.76179000 4.88730000e-02
-2.73179000 5.36325000e-02
-2.70179000 5.91342000e-02
-2.67179000 6.55103000e-02
-2.64179000 7.30617000e-02
-2.61179000 8.21095000e-02
-2.58179000 9.30529000e-02
-2.55179000 1.06446000e-01
-2.52179000 1.23068000e-01
-2.49179000 1.44038000e-01
-2.46179000 1.71002000e-01
-2.43179000 2.06456000e-01
-2.40179000 2.54328000e-01
-2.37179000 3.21061000e-01
-2.34179000 4.17773000e-01
-2.31179000 5.64834000e-01
-2.28179000 8.02271000e-01
-2.25179000 1.21514000e+00
-2.22179000 1.99636000e+00
-2.19179000 3.55707000e+00
-2.16179000 6.09185000e+00
-2.13179000 6.65433000e+00
-2.10179000 4.17482000e+00
-2.07097000 2.28172000e+00
-2.04097000 1.35972000e+00
-2.01097000 8.81707000e-01
-1.98097000 6.12249000e-01
-1.95097000 4.48137000e-01
-1.92097000 3.41668000e-01
-1.89097000 2.69010000e-01
-1.86097000 2.17360000e-01
-1.83097000 1.79394000e-01
-1.80097000 1.50708000e-01
-1.77097000 1.28527000e-01
-1.74097000 1.11035000e-01
-1.71097000 9.70053000e-02
-1.68097000 8.55864000e-02
-1.65097000 7.61727000e-02
-1.62097000 6.83244000e-02
-1.59097000 6.17162000e-02
-1.56097000 5.61040000e-02
-1.53097000 5.13034000e-02
-1.50097000 4.71725000e-02
-1.47097000 4.35790000e-02
-1.44097000 4.04100000e-02
-1.41097000 3.76252000e-02
-1.38097000 3.51741000e-02
-1.35016000 3.29498000e-02
-1.32016000 3.10268000e-02
-1.29016000 2.93095000e-02
-1.26016000 2.77708000e-02
-1.23016000 2.63880000e-02
-1.20016000 2.51426000e-02
-1.17016000 2.40196000e-02
-1.14016000 2.30078000e-02
-1.11016000 2.21012000e-02
-1.08016000 2.13028000e-02
-1.05016000 2.06153000e-02
-1.02016000 1.99510000e-02
-0.99016400 1.92430000e-02
-0.96016400 1.86184000e-02
-0.93016400 1.80999000e-02
-0.90016400 1.76091000e-02
-0.87016400 1.70873000e-02
-0.84016400 1.66066000e-02
-0.81016400 1.61860000e-02
-0.78016400 1.58115000e-02
-0.75016400 1.54730000e-02
-0.72016400 1.51655000e-02
-0.69016400 1.48851000e-02
-0.66016400 1.46268000e-02
-0.62935200 1.43840000e-02
-0.59935200 1.41707000e-02
-0.56935200 1.39799000e-02
-0.53935200 1.38134000e-02
-0.50935200 1.36780000e-02
-0.47935200 1.35873000e-02
-0.44935200 1.35420000e-02
-0.41935200 1.34709000e-02
-0.38935200 1.33156000e-02
-0.35935200 1.31170000e-02
-0.32935200 1.29626000e-02
-0.29935200 1.28512000e-02
-0.26935200 1.27665000e-02
-0.23935200 1.27010000e-02
-0.20935200 1.26527000e-02
-0.17935200 1.26209000e-02
-0.14935200 1.25916000e-02
-0.11935200 1.25567000e-02
-0.08935230 1.25279000e-02
-0.05935230 1.25109000e-02
-0.02935230 1.25042000e-02
0.00064765 1.25072000e-02
0.03064770 1.25187000e-02
0.06064770 1.25380000e-02
0.09145880 1.25655000e-02
0.12145900 1.25996000e-02
0.15145900 1.26405000e-02
0.18145900 1.26884000e-02
0.21145900 1.27430000e-02
0.24145900 1.28043000e-02
0.27145900 1.28723000e-02
0.30145900 1.29470000e-02
0.33145900 1.30284000e-02
0.36145900 1.31165000e-02
0.39145900 1.32114000e-02
0.42145900 1.33132000e-02
0.45145900 1.34220000e-02
0.48145900 1.35379000e-02
0.51145900 1.36609000e-02
0.54145900 1.37913000e-02
0.57145900 1.39291000e-02
0.60145900 1.40747000e-02
0.63145900 1.42281000e-02
0.66145900 1.43897000e-02
0.69145900 1.45597000e-02
0.72145900 1.47383000e-02
0.75145900 1.49259000e-02
0.78145900 1.51227000e-02
