# E(MeV)  S_GAMTGAMT(K=1) for Cf261_DDPCX
-2.37955000 7.66233000e-03
-2.34955000 6.22080000e-03
-2.31955000 5.55897000e-03
-2.28955000 5.13890000e-03
-2.25955000 4.79673000e-03
-2.22955000 4.58362000e-03
-2.19955000 4.45830000e-03
-2.16955000 4.38254000e-03
-2.13955000 4.33616000e-03
-2.10955000 4.30844000e-03
-2.06037000 4.28833000e-03
-2.03037000 4.28626000e-03
-2.00037000 4.28951000e-03
-1.97037000 4.29684000e-03
-1.94037000 4.30735000e-03
-1.91037000 4.32042000e-03
-1.88037000 4.33559000e-03
-1.85037000 4.35250000e-03
-1.82037000 4.37090000e-03
-1.79037000 4.39059000e-03
-1.74119000 4.42526000e-03
-1.71119000 4.44770000e-03
-1.68119000 4.47101000e-03
-1.65119000 4.49514000e-03
-1.62119000 4.52004000e-03
-1.59119000 4.54567000e-03
-1.56119000 4.57200000e-03
-1.53119000 4.59903000e-03
-1.50119000 4.62674000e-03
-1.47119000 4.65513000e-03
-1.42200000 4.70314000e-03
-1.39200000 4.73334000e-03
-1.36200000 4.76425000e-03
-1.33200000 4.79589000e-03
-1.30200000 4.82831000e-03
-1.27200000 4.86154000e-03
-1.24200000 4.89566000e-03
-1.21200000 4.93080000e-03
-1.18200000 4.96722000e-03
-1.15200000 5.00542000e-03
-1.10282000 5.07137000e-03
-1.07282000 5.10851000e-03
-1.04282000 5.14611000e-03
-1.01282000 5.18617000e-03
-0.98282200 5.22827000e-03
-0.95282200 5.27215000e-03
-0.92282200 5.31775000e-03
-0.89282200 5.36517000e-03
-0.86282200 5.41452000e-03
-0.83282200 5.46601000e-03
-0.78364000 5.55567000e-03
-0.75364000 5.61404000e-03
-0.72364000 5.67566000e-03
-0.69364000 5.74101000e-03
-0.66364000 5.81066000e-03
-0.63364000 5.88536000e-03
-0.60364000 5.96603000e-03
-0.57364000 6.05385000e-03
-0.54364000 6.15038000e-03
-0.51364000 6.25770000e-03
-0.46445800 6.46488000e-03
-0.43445800 6.61761000e-03
-0.40445800 6.79900000e-03
-0.37445800 7.02103000e-03
-0.34445800 7.30367000e-03
-0.31445800 7.68291000e-03
-0.28445800 8.22935000e-03
-0.25445800 9.09275000e-03
-0.22445800 1.05743000e-02
-0.19445800 1.27964000e-02
-0.14527600 1.41325000e-02
-0.11527600 1.56073000e-02
-0.08527620 2.01869000e-02
-0.05527620 2.77365000e-02
-0.02527620 2.86944000e-02
0.00472380 2.26256000e-02
0.03472380 1.97924000e-02
0.06472380 2.05142000e-02
0.09472380 2.13409000e-02
0.12472400 2.22368000e-02
0.17390600 3.31105000e-02
0.20390600 5.15427000e-02
0.23390600 7.84007000e-02
0.26390600 7.83263000e-02
0.29390600 5.40342000e-02
0.32390600 3.50468000e-02
0.35390600 2.45646000e-02
0.38390600 1.88527000e-02
0.41390600 1.53114000e-02
0.44390600 1.31736000e-02
0.49308800 1.12863000e-02
0.52308800 1.06457000e-02
0.55308800 1.02213000e-02
0.58308800 9.94378000e-03
0.61308800 9.77271000e-03
0.64308800 9.68498000e-03
0.67308800 9.66838000e-03
0.70308800 9.71350000e-03
0.73308800 9.81239000e-03
0.76308800 9.98215000e-03
