# E(MeV)  S_NSDRNSDR(K=0) for Cf261_DDPCX
-2.37955000 3.59393000e-01
-2.34955000 3.79986000e-01
-2.31955000 4.02289000e-01
-2.28955000 4.26518000e-01
-2.25955000 4.52922000e-01
-2.22955000 4.81797000e-01
-2.19955000 5.13486000e-01
-2.16955000 5.48396000e-01
-2.13955000 5.87010000e-01
-2.10955000 6.29907000e-01
-2.06037000 7.11383000e-01
-2.03037000 7.69326000e-01
-2.00037000 8.34897000e-01
-1.97037000 9.09554000e-01
-1.94037000 9.95117000e-01
-1.91037000 1.09389000e+00
-1.88037000 1.20881000e+00
-1.85037000 1.34368000e+00
-1.82037000 1.50352000e+00
-1.79037000 1.69499000e+00
-1.74119000 2.10247000e+00
-1.71119000 2.43067000e+00
-1.68119000 2.84504000e+00
-1.65119000 3.37863000e+00
-1.62119000 4.08184000e+00
-1.59119000 5.03440000e+00
-1.56119000 6.36806000e+00
-1.53119000 8.31209000e+00
-1.50119000 1.12907000e+01
-1.47119000 1.61473000e+01
-1.42200000 3.38328000e+01
-1.39200000 5.93860000e+01
-1.36200000 1.04984000e+02
-1.33200000 1.30651000e+02
-1.30200000 8.90157000e+01
-1.27200000 4.94073000e+01
-1.24200000 2.88962000e+01
-1.21200000 1.84422000e+01
-1.18200000 1.26696000e+01
-1.15200000 9.21610000e+00
-1.10282000 5.99592000e+00
-1.07282000 4.81425000e+00
-1.04282000 3.96501000e+00
-1.01282000 3.33627000e+00
-0.98282200 2.85936000e+00
-0.95282200 2.49034000e+00
-0.92282200 2.20014000e+00
-0.89282200 1.96889000e+00
-0.86282200 1.78270000e+00
-0.83282200 1.63164000e+00
-0.78364000 1.44175000e+00
-0.75364000 1.35328000e+00
-0.72364000 1.28126000e+00
-0.69364000 1.22314000e+00
-0.66364000 1.17696000e+00
-0.63364000 1.14127000e+00
-0.60364000 1.11496000e+00
-0.57364000 1.09724000e+00
-0.54364000 1.08759000e+00
-0.51364000 1.08571000e+00
-0.46445800 1.09933000e+00
-0.43445800 1.11820000e+00
-0.40445800 1.14572000e+00
-0.37445800 1.18278000e+00
-0.34445800 1.23073000e+00
-0.31445800 1.29145000e+00
-0.28445800 1.36773000e+00
-0.25445800 1.46359000e+00
-0.22445800 1.58519000e+00
-0.19445800 1.74232000e+00
-0.14527600 2.12587000e+00
-0.11527600 2.49697000e+00
-0.08527620 3.04039000e+00
-0.05527620 3.75778000e+00
-0.02527620 4.87966000e+00
0.00472380 7.07468000e+00
0.03472380 1.10493000e+01
0.06472380 1.40208000e+01
0.09472380 1.12892000e+01
0.12472400 8.46424000e+00
0.17390600 7.84783000e+00
0.20390600 9.23729000e+00
0.23390600 1.08797000e+01
0.26390600 1.16968000e+01
0.29390600 1.36115000e+01
0.32390600 1.78649000e+01
0.35390600 2.57721000e+01
0.38390600 3.85481000e+01
0.41390600 5.84038000e+01
0.44390600 9.86104000e+01
0.49308800 1.58388000e+02
0.52308800 1.03394000e+02
0.55308800 5.75391000e+01
0.58308800 3.40908000e+01
0.61308800 2.20280000e+01
0.64308800 1.52886000e+01
0.67308800 1.12130000e+01
0.70308800 8.58305000e+00
0.73308800 6.79576000e+00
0.76308800 5.52961000e+00
