# E(MeV)  S_NSDRNSDR(K=1) for Cf261_DDPCX
-2.37955000 3.00888000e+00
-2.34955000 3.90684000e+00
-2.31955000 2.98383000e+00
-2.28955000 2.05459000e+00
-2.25955000 1.82044000e+00
-2.22955000 2.21668000e+00
-2.19955000 3.00991000e+00
-2.16955000 2.76399000e+00
-2.13955000 1.74068000e+00
-2.10955000 1.09561000e+00
-2.06037000 6.42342000e-01
-2.03037000 5.18319000e-01
-2.00037000 4.42886000e-01
-1.97037000 3.94481000e-01
-1.94037000 3.62260000e-01
-1.91037000 3.40343000e-01
-1.88037000 3.25328000e-01
-1.85037000 3.15138000e-01
-1.82037000 3.08449000e-01
-1.79037000 3.04384000e-01
-1.74119000 3.01899000e-01
-1.71119000 3.02327000e-01
-1.68119000 3.03913000e-01
-1.65119000 3.06480000e-01
-1.62119000 3.09895000e-01
-1.59119000 3.14062000e-01
-1.56119000 3.18908000e-01
-1.53119000 3.24381000e-01
-1.50119000 3.30442000e-01
-1.47119000 3.37066000e-01
-1.42200000 3.49106000e-01
-1.39200000 3.57162000e-01
-1.36200000 3.65759000e-01
-1.33200000 3.74909000e-01
-1.30200000 3.84625000e-01
-1.27200000 3.94927000e-01
-1.24200000 4.05841000e-01
-1.21200000 4.17398000e-01
-1.18200000 4.29632000e-01
-1.15200000 4.42585000e-01
-1.10282000 4.65505000e-01
-1.07282000 4.80603000e-01
-1.04282000 4.96627000e-01
-1.01282000 5.13652000e-01
-0.98282200 5.31763000e-01
-0.95282200 5.51058000e-01
-0.92282200 5.71645000e-01
-0.89282200 5.93650000e-01
-0.86282200 6.17215000e-01
-0.83282200 6.42502000e-01
-0.78364000 6.88186000e-01
-0.75364000 7.18994000e-01
-0.72364000 7.52357000e-01
-0.69364000 7.88595000e-01
-0.66364000 8.28086000e-01
-0.63364000 8.71276000e-01
-0.60364000 9.18696000e-01
-0.57364000 9.70982000e-01
-0.54364000 1.02890000e+00
-0.51364000 1.09340000e+00
-0.46445800 1.21654000e+00
-0.43445800 1.30476000e+00
-0.40445800 1.40543000e+00
-0.37445800 1.52131000e+00
-0.34445800 1.65606000e+00
-0.31445800 1.81460000e+00
-0.28445800 2.00374000e+00
-0.25445800 2.23310000e+00
-0.22445800 2.51690000e+00
-0.19445800 2.87689000e+00
-0.14527600 3.73429000e+00
-0.11527600 4.54157000e+00
-0.08527620 5.76020000e+00
-0.05527620 7.76545000e+00
-0.02527620 1.13315000e+01
0.00472380 1.69483000e+01
0.03472380 2.00201000e+01
0.06472380 1.93068000e+01
0.09472380 2.22073000e+01
0.12472400 3.21422000e+01
0.17390600 7.15422000e+01
0.20390600 7.64222000e+01
0.23390600 5.27726000e+01
0.26390600 3.91018000e+01
0.29390600 3.48372000e+01
0.32390600 3.18377000e+01
0.35390600 2.89457000e+01
0.38390600 2.41830000e+01
0.41390600 2.38106000e+01
0.44390600 3.04756000e+01
0.49308800 5.00856000e+01
0.52308800 3.96809000e+01
0.55308800 2.68613000e+01
0.58308800 2.17275000e+01
0.61308800 2.22749000e+01
0.64308800 2.42295000e+01
0.67308800 2.31908000e+01
0.70308800 2.47591000e+01
0.73308800 3.28303000e+01
0.76308800 5.19536000e+01
