# E(MeV)  S_GAMTGAMT(K=0) for Cf261_DDPCX
-2.37955000 1.12316000e-02
-2.34955000 9.64367000e-03
-2.31955000 7.10708000e-03
-2.28955000 5.71534000e-03
-2.25955000 5.02669000e-03
-2.22955000 4.66543000e-03
-2.19955000 4.46304000e-03
-2.16955000 4.34433000e-03
-2.13955000 4.27323000e-03
-2.10955000 4.23102000e-03
-2.06037000 4.19901000e-03
-2.03037000 4.19368000e-03
-2.00037000 4.19542000e-03
-1.97037000 4.20238000e-03
-1.94037000 4.21333000e-03
-1.91037000 4.22740000e-03
-1.88037000 4.24399000e-03
-1.85037000 4.26267000e-03
-1.82037000 4.28311000e-03
-1.79037000 4.30509000e-03
-1.74119000 4.34401000e-03
-1.71119000 4.36933000e-03
-1.68119000 4.39574000e-03
-1.65119000 4.42321000e-03
-1.62119000 4.45168000e-03
-1.59119000 4.48116000e-03
-1.56119000 4.51163000e-03
-1.53119000 4.54310000e-03
-1.50119000 4.57558000e-03
-1.47119000 4.60911000e-03
-1.42200000 4.66643000e-03
-1.39200000 4.70292000e-03
-1.36200000 4.74063000e-03
-1.33200000 4.77963000e-03
-1.30200000 4.82002000e-03
-1.27200000 4.86190000e-03
-1.24200000 4.90538000e-03
-1.21200000 4.95059000e-03
-1.18200000 4.99770000e-03
-1.15200000 5.04688000e-03
-1.10282000 5.13258000e-03
-1.07282000 5.18836000e-03
-1.04282000 5.24719000e-03
-1.01282000 5.30946000e-03
-0.98282200 5.37564000e-03
-0.95282200 5.44630000e-03
-0.92282200 5.52213000e-03
-0.89282200 5.60400000e-03
-0.86282200 5.69297000e-03
-0.83282200 5.79040000e-03
-0.78364000 5.97318000e-03
-0.75364000 6.10271000e-03
-0.72364000 6.25007000e-03
-0.69364000 6.42017000e-03
-0.66364000 6.61984000e-03
-0.63364000 6.85883000e-03
-0.60364000 7.15153000e-03
-0.57364000 7.51987000e-03
-0.54364000 7.99857000e-03
-0.51364000 8.64533000e-03
-0.46445800 1.03692000e-02
-0.43445800 1.22171000e-02
-0.40445800 1.53584000e-02
-0.37445800 2.12073000e-02
-0.34445800 3.27453000e-02
-0.31445800 5.10260000e-02
-0.28445800 5.42878000e-02
-0.25445800 3.69468000e-02
-0.22445800 2.46316000e-02
-0.19445800 1.89749000e-02
-0.14527600 1.69993000e-02
-0.11527600 1.92764000e-02
-0.08527620 2.48962000e-02
-0.05527620 2.89624000e-02
-0.02527620 2.38554000e-02
0.00472380 1.87837000e-02
0.03472380 1.69300000e-02
0.06472380 1.74195000e-02
0.09472380 1.98544000e-02
0.12472400 2.29672000e-02
0.17390600 3.35668000e-02
0.20390600 5.07074000e-02
0.23390600 6.73805000e-02
0.26390600 5.72247000e-02
0.29390600 4.47488000e-02
0.32390600 4.51719000e-02
0.35390600 4.71655000e-02
0.38390600 3.56113000e-02
0.41390600 2.47044000e-02
0.44390600 1.88939000e-02
0.49308800 1.47066000e-02
0.52308800 1.35463000e-02
0.55308800 1.28821000e-02
0.58308800 1.25234000e-02
0.61308800 1.23726000e-02
0.64308800 1.23796000e-02
0.67308800 1.25228000e-02
0.70308800 1.28039000e-02
0.73308800 1.32538000e-02
0.76308800 1.39567000e-02
