# E(MeV)  S_GAMTGAMT(K=0) for Cr57_DDPCX
-5.24486000 8.07396000e-02
-5.21486000 1.39427000e-01
-5.18486000 1.55899000e-01
-5.15486000 9.93730000e-02
-5.12486000 5.56337000e-02
-5.09486000 3.35495000e-02
-5.06486000 2.22408000e-02
-5.03486000 1.59752000e-02
-5.00486000 1.22419000e-02
-4.97486000 9.88716000e-03
-4.94486000 8.33800000e-03
-4.91486000 7.28840000e-03
-4.88486000 6.56449000e-03
-4.85486000 6.06226000e-03
-4.82486000 5.71679000e-03
-4.79486000 5.48611000e-03
-4.76486000 5.34231000e-03
-4.73486000 5.26646000e-03
-4.70486000 5.24553000e-03
-4.67486000 5.27050000e-03
-4.63915000 5.35159000e-03
-4.60915000 5.45819000e-03
-4.57915000 5.59735000e-03
-4.54915000 5.76785000e-03
-4.51915000 5.96945000e-03
-4.48915000 6.20276000e-03
-4.45915000 6.46916000e-03
-4.42915000 6.77081000e-03
-4.39915000 7.11071000e-03
-4.36915000 7.49269000e-03
-4.33915000 7.92162000e-03
-4.30915000 8.40349000e-03
-4.27915000 8.94570000e-03
-4.24915000 9.55732000e-03
-4.21915000 1.02495000e-02
-4.18915000 1.10360000e-02
-4.15915000 1.19339000e-02
-4.12915000 1.29646000e-02
-4.09915000 1.41550000e-02
-4.06915000 1.55394000e-02
-4.03343000 1.75026000e-02
-4.00343000 1.94854000e-02
-3.97343000 2.18579000e-02
-3.94343000 2.47288000e-02
-3.91343000 2.82482000e-02
-3.88343000 3.26266000e-02
-3.85343000 3.81668000e-02
-3.82343000 4.53172000e-02
-3.79343000 5.47623000e-02
-3.76343000 6.75877000e-02
-3.73343000 8.55920000e-02
-3.70343000 1.11915000e-01
-3.67343000 1.52388000e-01
-3.64343000 2.18653000e-01
-3.61343000 3.35849000e-01
-3.58343000 5.61313000e-01
-3.55343000 1.00904000e+00
-3.52343000 1.63961000e+00
-3.49343000 1.56248000e+00
-3.46343000 9.24971000e-01
-3.42772000 4.67681000e-01
-3.39772000 2.88467000e-01
-3.36772000 1.92756000e-01
-3.33772000 1.37172000e-01
-3.30772000 1.02484000e-01
-3.27772000 7.95474000e-02
-3.24772000 6.36668000e-02
-3.21772000 5.22572000e-02
-3.18772000 4.38112000e-02
-3.15772000 3.74054000e-02
-3.12772000 3.24511000e-02
-3.09772000 2.85602000e-02
-3.06772000 2.54694000e-02
-3.03772000 2.29970000e-02
-3.00772000 2.10160000e-02
-2.97772000 1.94382000e-02
-2.94772000 1.82046000e-02
-2.91772000 1.72800000e-02
-2.88772000 1.66515000e-02
-2.85772000 1.63317000e-02
-2.82201000 1.64196000e-02
-2.79201000 1.70091000e-02
-2.76201000 1.82904000e-02
-2.73201000 2.06778000e-02
-2.70201000 2.50183000e-02
-2.67201000 3.31644000e-02
-2.64201000 4.93573000e-02
-2.61201000 8.17694000e-02
-2.58201000 1.24883000e-01
-2.55201000 1.14270000e-01
-2.52201000 6.96233000e-02
-2.49201000 4.21803000e-02
-2.46201000 2.83724000e-02
-2.43201000 2.10146000e-02
-2.40201000 1.67405000e-02
-2.37201000 1.40650000e-02
-2.34201000 1.22887000e-02
-2.31201000 1.10554000e-02
-2.28201000 1.01715000e-02
-2.25201000 9.52629000e-03
-2.21629000 8.98355000e-03
-2.18629000 8.68341000e-03
-2.15629000 8.51753000e-03
-2.12629000 8.40065000e-03
-2.09629000 8.18020000e-03
-2.06629000 7.99359000e-03
-2.03629000 7.89766000e-03
-2.00629000 7.86911000e-03
-1.97629000 7.89260000e-03
-1.94629000 7.96211000e-03
-1.91629000 8.07649000e-03
-1.88629000 8.23760000e-03
-1.85629000 8.44971000e-03
-1.82629000 8.71957000e-03
-1.79629000 9.05685000e-03
-1.76629000 9.47497000e-03
-1.73629000 9.99244000e-03
-1.70629000 1.06349000e-02
-1.67629000 1.14384000e-02
-1.64629000 1.24545000e-02
-1.61058000 1.40485000e-02
-1.58058000 1.58494000e-02
-1.55058000 1.82760000e-02
-1.52058000 2.16495000e-02
-1.49058000 2.65265000e-02
-1.46058000 3.39339000e-02
-1.43058000 4.59079000e-02
-1.40058000 6.68203000e-02
-1.37058000 1.06589000e-01
-1.34058000 1.84719000e-01
-1.31058000 2.93303000e-01
-1.28058000 2.83248000e-01
-1.25058000 1.89273000e-01
-1.22058000 1.46900000e-01
-1.19058000 1.53854000e-01
-1.16058000 1.46876000e-01
-1.13058000 9.74771000e-02
-1.10058000 6.11090000e-02
-1.07058000 4.17960000e-02
-1.04058000 3.11646000e-02
-1.00487000 2.38933000e-02
-0.97486900 2.01177000e-02
-0.94486900 1.75384000e-02
-0.91486900 1.57096000e-02
-0.88486900 1.43785000e-02
-0.85486900 1.33927000e-02
-0.82486900 1.26564000e-02
-0.79486900 1.21071000e-02
-0.76486900 1.17037000e-02
-0.73486900 1.14193000e-02
-0.70486900 1.12394000e-02
-0.67486900 1.11622000e-02
-0.64486900 1.12080000e-02
-0.61486900 1.14378000e-02
-0.58486900 1.19095000e-02
-0.55486900 1.21830000e-02
-0.52486900 1.18597000e-02
-0.49486900 1.16264000e-02
-0.46486900 1.16138000e-02
-0.43486900 1.17336000e-02
-0.39915600 1.19825000e-02
-0.36915600 1.22586000e-02
-0.33915600 1.25890000e-02
-0.30915600 1.29727000e-02
-0.27915600 1.34115000e-02
-0.24915600 1.39098000e-02
-0.21915600 1.44734000e-02
-0.18915600 1.51101000e-02
-0.15915600 1.58298000e-02
-0.12915600 1.66450000e-02
-0.09915600 1.75709000e-02
-0.06915600 1.86270000e-02
-0.03915600 1.98374000e-02
-0.00915600 2.12328000e-02
0.02084400 2.28524000e-02
0.05084400 2.47469000e-02
0.08084400 2.69827000e-02
0.11084400 2.96482000e-02
0.14084400 3.28628000e-02
0.17084400 3.67912000e-02
0.20655700 4.27262000e-02
0.23655700 4.91750000e-02
0.26655700 5.75229000e-02
0.29655700 6.86029000e-02
0.32655700 8.37559000e-02
0.35655700 1.05245000e-01
0.38655700 1.37109000e-01
0.41655700 1.87057000e-01
0.44655700 2.70965000e-01
0.47655700 4.24088000e-01
0.50655700 7.25930000e-01
0.53655700 1.29072000e+00
0.56655700 1.75975000e+00
0.59655700 1.31360000e+00
0.62655700 7.58113000e-01
0.65655700 4.74057000e-01
0.68655700 3.58432000e-01
0.71655700 3.48066000e-01
0.74655700 3.82059000e-01
0.77655700 3.10218000e-01
