# E(MeV)  S_GAMTGAMT(K=1) for Cr57_DDPCX
-5.24486000 -2.87106000e+00
-5.21486000 -1.97812000e+00
-5.18486000 -1.04331000e+00
-5.15486000 -5.43181000e-01
-5.12486000 -2.75130000e-01
-5.09486000 -1.10052000e-01
-5.06486000 1.13945000e-02
-5.03486000 1.20096000e-01
-5.00486000 2.38072000e-01
-4.97486000 3.89609000e-01
-4.94486000 6.13452000e-01
-4.91486000 9.86658000e-01
-4.88486000 1.68077000e+00
-4.85486000 3.05393000e+00
-4.82486000 5.20645000e+00
-4.79486000 5.49372000e+00
-4.76486000 3.37969000e+00
-4.73486000 1.87238000e+00
-4.70486000 1.11570000e+00
-4.67486000 7.25429000e-01
-4.63915000 4.78363000e-01
-4.60915000 3.61434000e-01
-4.57915000 2.90604000e-01
-4.54915000 2.51181000e-01
-4.51915000 2.39429000e-01
-4.48915000 2.62880000e-01
-4.45915000 3.45713000e-01
-4.42915000 4.96090000e-01
-4.39915000 5.11958000e-01
-4.36915000 3.36812000e-01
-4.33915000 2.08097000e-01
-4.30915000 1.40424000e-01
-4.27915000 1.03130000e-01
-4.24915000 8.04871000e-02
-4.21915000 6.55237000e-02
-4.18915000 5.49615000e-02
-4.15915000 4.71228000e-02
-4.12915000 4.10785000e-02
-4.09915000 3.62781000e-02
-4.06915000 3.23762000e-02
-4.03343000 2.85921000e-02
-4.00343000 2.59606000e-02
-3.97343000 2.37161000e-02
-3.94343000 2.17824000e-02
-3.91343000 2.01021000e-02
-3.88343000 1.86313000e-02
-3.85343000 1.73357000e-02
-3.82343000 1.61881000e-02
-3.79343000 1.51667000e-02
-3.76343000 1.42538000e-02
-3.73343000 1.34348000e-02
-3.70343000 1.26977000e-02
-3.67343000 1.20324000e-02
-3.64343000 1.14308000e-02
-3.61343000 1.08855000e-02
-3.58343000 1.03908000e-02
-3.55343000 9.94164000e-03
-3.52343000 9.53372000e-03
-3.49343000 9.16359000e-03
-3.46343000 8.82834000e-03
-3.42772000 8.47160000e-03
-3.39772000 8.20556000e-03
-3.36772000 7.96912000e-03
-3.33772000 7.76194000e-03
-3.30772000 7.58445000e-03
-3.27772000 7.43810000e-03
-3.24772000 7.32565000e-03
-3.21772000 7.25176000e-03
-3.18772000 7.22388000e-03
-3.15772000 7.25382000e-03
-3.12772000 7.36047000e-03
-3.09772000 7.57480000e-03
-3.06772000 7.94961000e-03
-3.03772000 8.57944000e-03
-3.00772000 9.64453000e-03
-2.97772000 1.15147000e-02
-2.94772000 1.50075000e-02
-2.91772000 2.19653000e-02
-2.88772000 3.52305000e-02
-2.85772000 4.82778000e-02
-2.82201000 3.59002000e-02
-2.79201000 2.21013000e-02
-2.76201000 1.47987000e-02
-2.73201000 1.10794000e-02
-2.70201000 9.03073000e-03
-2.67201000 7.80774000e-03
-2.64201000 7.02955000e-03
-2.61201000 6.51122000e-03
-2.58201000 6.15638000e-03
-2.55201000 5.91198000e-03
-2.52201000 5.74801000e-03
-2.49201000 5.64804000e-03
-2.46201000 5.60499000e-03
-2.43201000 5.62037000e-03
-2.40201000 5.70723000e-03
-2.37201000 5.90022000e-03
-2.34201000 6.28080000e-03
-2.31201000 6.99726000e-03
-2.28201000 7.88905000e-03
-2.25201000 7.89266000e-03
-2.21629000 7.61877000e-03
-2.18629000 8.00025000e-03
-2.15629000 9.05764000e-03
-2.12629000 1.11913000e-02
-2.09629000 1.53984000e-02
-2.06629000 2.21453000e-02
-2.03629000 2.48307000e-02
-2.00629000 2.27420000e-02
-1.97629000 2.48116000e-02
-1.94629000 2.57618000e-02
-1.91629000 1.94648000e-02
-1.88629000 1.44015000e-02
-1.85629000 1.20563000e-02
-1.82629000 1.12059000e-02
-1.79629000 1.11987000e-02
-1.76629000 1.18028000e-02
-1.73629000 1.30032000e-02
-1.70629000 1.49460000e-02
-1.67629000 1.79777000e-02
-1.64629000 2.28003000e-02
-1.61058000 3.29815000e-02
-1.58058000 4.93316000e-02
-1.55058000 8.15244000e-02
-1.52058000 1.42767000e-01
-1.49058000 2.00246000e-01
-1.46058000 1.55756000e-01
-1.43058000 9.10848000e-02
-1.40058000 5.67966000e-02
-1.37058000 4.16091000e-02
-1.34058000 3.71962000e-02
-1.31058000 3.95198000e-02
-1.28058000 3.82207000e-02
-1.25058000 2.78987000e-02
-1.22058000 2.00560000e-02
-1.19058000 1.58347000e-02
-1.16058000 1.35294000e-02
-1.13058000 1.22242000e-02
-1.10058000 1.15071000e-02
-1.07058000 1.11894000e-02
-1.04058000 1.11877000e-02
-1.00487000 1.15681000e-02
-0.97486900 1.22389000e-02
-0.94486900 1.33126000e-02
-0.91486900 1.49412000e-02
-0.88486900 1.74008000e-02
-0.85486900 2.12039000e-02
-0.82486900 2.73555000e-02
-0.79486900 3.79728000e-02
-0.76486900 5.78287000e-02
-0.73486900 9.73848000e-02
-0.70486900 1.65953000e-01
-0.67486900 1.96999000e-01
-0.64486900 1.34573000e-01
-0.61486900 8.22094000e-02
-0.58486900 5.64332000e-02
-0.55486900 4.08261000e-02
-0.52486900 3.22488000e-02
-0.49486900 2.72094000e-02
-0.46486900 2.21572000e-02
-0.43486900 1.87473000e-02
-0.39915600 1.67883000e-02
-0.36915600 1.62758000e-02
-0.33915600 1.65672000e-02
-0.30915600 1.76980000e-02
-0.27915600 1.99409000e-02
-0.24915600 2.39532000e-02
-0.21915600 3.12054000e-02
-0.18915600 4.50737000e-02
-0.15915600 7.27597000e-02
-0.12915600 1.17623000e-01
-0.09915600 1.28430000e-01
-0.06915600 8.77545000e-02
-0.03915600 5.99301000e-02
-0.00915600 5.20053000e-02
0.02084400 5.98830000e-02
0.05084400 7.57249000e-02
0.08084400 6.65222000e-02
0.11084400 4.39164000e-02
0.14084400 3.04376000e-02
0.17084400 2.36967000e-02
0.20655700 1.98159000e-02
0.23655700 1.82977000e-02
0.26655700 1.77079000e-02
0.29655700 1.77968000e-02
0.32655700 1.84955000e-02
0.35655700 1.98694000e-02
0.38655700 2.21416000e-02
0.41655700 2.58028000e-02
0.44655700 3.19026000e-02
0.47655700 4.27897000e-02
0.50655700 6.36846000e-02
0.53655700 1.00979000e-01
0.56655700 1.27120000e-01
0.59655700 1.00594000e-01
0.62655700 7.51937000e-02
0.65655700 6.91790000e-02
0.68655700 7.92195000e-02
0.71655700 1.08778000e-01
0.74655700 1.72805000e-01
0.77655700 2.64975000e-01
