# E(MeV)  S_NSDRNSDR(K=1) for Cr57_DDPCX
-5.24486000 -7.01039000e-03
-5.21486000 -6.90488000e-03
-5.18486000 -6.80033000e-03
-5.15486000 -6.69671000e-03
-5.12486000 -6.59400000e-03
-5.09486000 -6.49219000e-03
-5.06486000 -6.39126000e-03
-5.03486000 -6.29120000e-03
-5.00486000 -6.19199000e-03
-4.97486000 -6.09361000e-03
-4.94486000 -5.99605000e-03
-4.91486000 -5.89930000e-03
-4.88486000 -5.80334000e-03
-4.85486000 -5.70816000e-03
-4.82486000 -5.61374000e-03
-4.79486000 -5.52006000e-03
-4.76486000 -5.42713000e-03
-4.73486000 -5.33491000e-03
-4.70486000 -5.24341000e-03
-4.67486000 -5.15261000e-03
-4.63915000 -5.04540000e-03
-4.60915000 -4.95608000e-03
-4.57915000 -4.86742000e-03
-4.54915000 -4.77940000e-03
-4.51915000 -4.69202000e-03
-4.48915000 -4.60527000e-03
-4.45915000 -4.51913000e-03
-4.42915000 -4.43359000e-03
-4.39915000 -4.34864000e-03
-4.36915000 -4.26428000e-03
-4.33915000 -4.18048000e-03
-4.30915000 -4.09724000e-03
-4.27915000 -4.01456000e-03
-4.24915000 -3.93242000e-03
-4.21915000 -3.85080000e-03
-4.18915000 -3.76971000e-03
-4.15915000 -3.68913000e-03
-4.12915000 -3.60905000e-03
-4.09915000 -3.52946000e-03
-4.06915000 -3.45036000e-03
-4.03343000 -3.35681000e-03
-4.00343000 -3.27874000e-03
-3.97343000 -3.20112000e-03
-3.94343000 -3.12395000e-03
-3.91343000 -3.04722000e-03
-3.88343000 -2.97092000e-03
-3.85343000 -2.89503000e-03
-3.82343000 -2.81957000e-03
-3.79343000 -2.74450000e-03
-3.76343000 -2.66984000e-03
-3.73343000 -2.59556000e-03
-3.70343000 -2.52167000e-03
-3.67343000 -2.44814000e-03
-3.64343000 -2.37499000e-03
-3.61343000 -2.30219000e-03
-3.58343000 -2.22973000e-03
-3.55343000 -2.15763000e-03
-3.52343000 -2.08585000e-03
-3.49343000 -2.01440000e-03
-3.46343000 -1.94327000e-03
-3.42772000 -1.85900000e-03
-3.39772000 -1.78855000e-03
-3.36772000 -1.71838000e-03
-3.33772000 -1.64851000e-03
-3.30772000 -1.57891000e-03
-3.27772000 -1.50958000e-03
-3.24772000 -1.44052000e-03
-3.21772000 -1.37171000e-03
-3.18772000 -1.30315000e-03
-3.15772000 -1.23483000e-03
-3.12772000 -1.16674000e-03
-3.09772000 -1.09888000e-03
-3.06772000 -1.03123000e-03
-3.03772000 -9.63782000e-04
-3.00772000 -8.96537000e-04
-2.97772000 -8.29481000e-04
-2.94772000 -7.62605000e-04
-2.91772000 -6.95901000e-04
-2.88772000 -6.29358000e-04
-2.85772000 -5.62967000e-04
-2.82201000 -4.84117000e-04
-2.79201000 -4.18022000e-04
-2.76201000 -3.52047000e-04
-2.73201000 -2.86178000e-04
-2.70201000 -2.20404000e-04
-2.67201000 -1.54712000e-04
-2.64201000 -8.90903000e-05
-2.61201000 -2.35239000e-05
-2.58201000 4.20016000e-05
-2.55201000 1.07502000e-04
-2.52201000 1.72993000e-04
-2.49201000 2.38494000e-04
-2.46201000 3.04022000e-04
-2.43201000 3.69599000e-04
-2.40201000 4.35246000e-04
-2.37201000 5.00988000e-04
-2.34201000 5.66851000e-04
-2.31201000 6.32863000e-04
-2.28201000 6.99056000e-04
-2.25201000 7.65464000e-04
-2.21629000 8.44853000e-04
-2.18629000 9.11872000e-04
-2.15629000 9.79245000e-04
-2.12629000 1.04703000e-03
-2.09629000 1.11528000e-03
-2.06629000 1.18406000e-03
-2.03629000 1.25347000e-03
-2.00629000 1.32359000e-03
-1.97629000 1.39452000e-03
-1.94629000 1.46638000e-03
-1.91629000 1.53932000e-03
-1.88629000 1.61350000e-03
-1.85629000 1.68911000e-03
-1.82629000 1.76638000e-03
-1.79629000 1.84560000e-03
-1.76629000 1.92708000e-03
-1.73629000 2.01124000e-03
-1.70629000 2.09857000e-03
-1.67629000 2.18967000e-03
-1.64629000 2.28532000e-03
-1.61058000 2.40645000e-03
-1.58058000 2.51578000e-03
-1.55058000 2.63380000e-03
-1.52058000 2.76273000e-03
-1.49058000 2.90553000e-03
-1.46058000 3.06626000e-03
-1.43058000 3.25060000e-03
-1.40058000 3.46662000e-03
-1.37058000 3.72621000e-03
-1.34058000 4.04733000e-03
-1.31058000 4.45818000e-03
-1.28058000 5.00496000e-03
-1.25058000 5.76718000e-03
-1.22058000 6.89016000e-03
-1.19058000 8.65875000e-03
-1.16058000 1.16765000e-02
-1.13058000 1.73107000e-02
-1.10058000 2.84981000e-02
-1.07058000 4.69507000e-02
-1.04058000 5.21059000e-02
-1.00487000 3.10358000e-02
-0.97486900 1.88655000e-02
-0.94486900 1.28020000e-02
-0.91486900 9.66569000e-03
-0.88486900 7.91489000e-03
-0.85486900 6.87264000e-03
-0.82486900 6.22326000e-03
-0.79486900 5.80771000e-03
-0.76486900 5.54005000e-03
-0.73486900 5.37108000e-03
-0.70486900 5.27128000e-03
-0.67486900 5.22236000e-03
-0.64486900 5.21276000e-03
-0.61486900 5.23521000e-03
-0.58486900 5.28532000e-03
-0.55486900 5.36081000e-03
-0.52486900 5.46113000e-03
-0.49486900 5.58728000e-03
-0.46486900 5.74189000e-03
-0.43486900 5.92961000e-03
-0.39915600 6.20644000e-03
-0.36915600 6.49712000e-03
-0.33915600 6.85969000e-03
-0.30915600 7.32221000e-03
-0.27915600 7.93000000e-03
-0.24915600 8.75987000e-03
-0.21915600 9.95011000e-03
-0.18915600 1.17683000e-02
-0.15915600 1.47760000e-02
-0.12915600 2.02335000e-02
-0.09915600 3.07678000e-02
-0.06915600 4.71590000e-02
-0.03915600 5.04419000e-02
-0.00915600 3.71038000e-02
0.02084400 2.92740000e-02
0.05084400 2.89659000e-02
0.08084400 3.56700000e-02
0.11084400 5.30106000e-02
0.14084400 8.59520000e-02
0.17084400 1.05178000e-01
0.20655700 6.71587000e-02
0.23655700 4.02634000e-02
0.26655700 2.66065000e-02
0.29655700 1.95509000e-02
0.32655700 1.56018000e-02
0.35655700 1.32250000e-02
0.38655700 1.17137000e-02
0.41655700 1.07157000e-02
0.44655700 1.00430000e-02
0.47655700 9.58954000e-03
0.50655700 9.29353000e-03
0.53655700 9.11909000e-03
0.56655700 9.04755000e-03
0.59655700 9.07390000e-03
0.62655700 9.20741000e-03
0.65655700 9.47740000e-03
0.68655700 9.94851000e-03
0.71655700 1.07583000e-02
0.74655700 1.22111000e-02
0.77655700 1.50061000e-02
