# E(MeV)  S_NSDRNSDR(Total=K0+2*K1) for Cr57_DDPCX
-5.24486000 -1.98467100e-02
-5.21486000 -1.95575100e-02
-5.18486000 -1.92708600e-02
-5.15486000 -1.89866800e-02
-5.12486000 -1.87049300e-02
-5.09486000 -1.84255800e-02
-5.06486000 -1.81485800e-02
-5.03486000 -1.78738900e-02
-5.00486000 -1.76014800e-02
-4.97486000 -1.73312800e-02
-4.94486000 -1.70632700e-02
-4.91486000 -1.67974200e-02
-4.88486000 -1.65336800e-02
-4.85486000 -1.62720200e-02
-4.82486000 -1.60124000e-02
-4.79486000 -1.57547600e-02
-4.76486000 -1.54991200e-02
-4.73486000 -1.52453900e-02
-4.70486000 -1.49935800e-02
-4.67486000 -1.47436500e-02
-4.63915000 -1.44484800e-02
-4.60915000 -1.42025100e-02
-4.57915000 -1.39583100e-02
-4.54915000 -1.37158300e-02
-4.51915000 -1.34750600e-02
-4.48915000 -1.32359800e-02
-4.45915000 -1.29985400e-02
-4.42915000 -1.27627200e-02
-4.39915000 -1.25284700e-02
-4.36915000 -1.22958100e-02
-4.33915000 -1.20646600e-02
-4.30915000 -1.18350100e-02
-4.27915000 -1.16068600e-02
-4.24915000 -1.13801700e-02
-4.21915000 -1.11548800e-02
-4.18915000 -1.09310100e-02
-4.15915000 -1.07085100e-02
-4.12915000 -1.04873600e-02
-4.09915000 -1.02675300e-02
-4.06915000 -1.00490100e-02
-4.03343000 -9.79054000e-03
-4.00343000 -9.57480000e-03
-3.97343000 -9.36028000e-03
-3.94343000 -9.14696000e-03
-3.91343000 -8.93483000e-03
-3.88343000 -8.72385000e-03
-3.85343000 -8.51399000e-03
-3.82343000 -8.30528000e-03
-3.79343000 -8.09763000e-03
-3.76343000 -7.89107000e-03
-3.73343000 -7.68554000e-03
-3.70343000 -7.48106000e-03
-3.67343000 -7.27755000e-03
-3.64343000 -7.07506000e-03
-3.61343000 -6.87352000e-03
-3.58343000 -6.67289000e-03
-3.55343000 -6.47322000e-03
-3.52343000 -6.27442000e-03
-3.49343000 -6.07651000e-03
-3.46343000 -5.87945000e-03
-3.42772000 -5.64596000e-03
-3.39772000 -5.45072000e-03
-3.36772000 -5.25623000e-03
-3.33772000 -5.06254000e-03
-3.30772000 -4.86958000e-03
-3.27772000 -4.67734000e-03
-3.24772000 -4.48581000e-03
-3.21772000 -4.29494000e-03
-3.18772000 -4.10473000e-03
-3.15772000 -3.91516000e-03
-3.12772000 -3.72619000e-03
-3.09772000 -3.53782000e-03
-3.06772000 -3.35000000e-03
-3.03772000 -3.16269400e-03
-3.00772000 -2.97591400e-03
-2.97772000 -2.78961200e-03
-2.94772000 -2.60377000e-03
-2.91772000 -2.41835200e-03
-2.88772000 -2.23332400e-03
-2.85772000 -2.04866500e-03
-2.82201000 -1.82927200e-03
-2.79201000 -1.64529800e-03
-2.76201000 -1.46158400e-03
-2.73201000 -1.27808800e-03
-2.70201000 -1.09477200e-03
-2.67201000 -9.11594000e-04
-2.64201000 -7.28510600e-04
-2.61201000 -5.45472800e-04
-2.58201000 -3.62427800e-04
-2.55201000 -1.79322000e-04
-2.52201000 3.90400000e-06
-2.49201000 1.87318000e-04
-2.46201000 3.70987000e-04
-2.43201000 5.54990000e-04
-2.40201000 7.39410000e-04
-2.37201000 9.24342600e-04
-2.34201000 1.10989040e-03
-2.31201000 1.29616680e-03
-2.28201000 1.48330110e-03
-2.25201000 1.67143600e-03
-2.21629000 1.89692900e-03
-2.18629000 2.08784900e-03
-2.15629000 2.28036700e-03
-2.12629000 2.47473200e-03
-2.09629000 2.67121000e-03
-2.06629000 2.87011500e-03
-2.03629000 3.07186700e-03
-2.00629000 3.27688500e-03
-1.97629000 3.48568300e-03
-1.94629000 3.69887600e-03
-1.91629000 3.91722200e-03
-1.88629000 4.14160300e-03
-1.85629000 4.37309000e-03
-1.82629000 4.61301000e-03
-1.79629000 4.86304000e-03
-1.76629000 5.12518000e-03
-1.73629000 5.40208000e-03
-1.70629000 5.69707000e-03
-1.67629000 6.01450000e-03
-1.64629000 6.36017000e-03
-1.61058000 6.81940000e-03
-1.58058000 7.25821000e-03
-1.55058000 7.76241000e-03
-1.52058000 8.35563000e-03
-1.49058000 9.07349000e-03
-1.46058000 9.97187000e-03
-1.43058000 1.11427000e-02
-1.40058000 1.27457300e-02
-1.37058000 1.50781500e-02
-1.34058000 1.87372600e-02
-1.31058000 2.50229600e-02
-1.28058000 3.68458200e-02
-1.25058000 5.87137600e-02
-1.22058000 7.96700200e-02
-1.19058000 6.80319000e-02
-1.16058000 5.25142000e-02
-1.13058000 5.20663000e-02
-1.10058000 6.85621000e-02
-1.07058000 1.02302360e-01
-1.04058000 1.10768350e-01
-1.00487000 6.73133500e-02
-0.97486900 4.22769700e-02
-0.94486900 2.96740400e-02
-0.91486900 2.30670900e-02
-0.88486900 1.93262500e-02
-0.85486900 1.70686300e-02
-0.82486900 1.56441100e-02
-0.79486900 1.47220700e-02
-0.76486900 1.41219600e-02
-0.73486900 1.37392800e-02
-0.70486900 1.35105700e-02
-0.67486900 1.33960000e-02
-0.64486900 1.33700200e-02
-0.61486900 1.34162600e-02
-0.58486900 1.35245000e-02
-0.55486900 1.36890800e-02
-0.52486900 1.39080400e-02
-0.49486900 1.41826900e-02
-0.46486900 1.45177300e-02
-0.43486900 1.49220400e-02
-0.39915600 1.55135400e-02
-0.36915600 1.61292900e-02
-0.33915600 1.68909500e-02
-0.30915600 1.78544800e-02
-0.27915600 1.91103700e-02
-0.24915600 2.08121500e-02
-0.21915600 2.32363100e-02
-0.18915600 2.69179800e-02
-0.15915600 3.29802300e-02
-0.12915600 4.39436500e-02
-0.09915600 6.50622500e-02
-0.06915600 9.78962700e-02
-0.03915600 1.04515380e-01
-0.00915600 7.78942500e-02
0.02084400 6.22916100e-02
0.05084400 6.17344000e-02
0.08084400 7.52038100e-02
0.11084400 1.09948680e-01
0.14084400 1.75897900e-01
0.17084400 2.14419460e-01
0.20655700 1.38468430e-01
0.23655700 8.47561400e-02
0.26655700 5.75259200e-02
0.29655700 4.35047400e-02
0.32655700 3.57046500e-02
0.35655700 3.10596100e-02
0.38655700 2.81595600e-02
0.41655700 2.63055600e-02
0.44655700 2.51306100e-02
0.47655700 2.44381800e-02
0.50655700 2.41337600e-02
0.53655700 2.42042900e-02
0.56655700 2.47408000e-02
0.59655700 2.60239400e-02
0.62655700 2.85527200e-02
0.65655700 3.14213000e-02
0.68655700 3.11140200e-02
0.71655700 3.05260000e-02
0.74655700 3.23162500e-02
0.77655700 3.74916700e-02
