# E(MeV)  S_NSDRNSDR(K=1) for Cu69_DDPCX
-4.23836000 -1.21523000e-02
-4.20836000 -1.19614000e-02
-4.17836000 -1.17736000e-02
-4.14836000 -1.15890000e-02
-4.11836000 -1.14078000e-02
-4.08836000 -1.12299000e-02
-4.05836000 -1.10557000e-02
-4.02836000 -1.08853000e-02
-3.99836000 -1.07192000e-02
-3.96836000 -1.05581000e-02
-3.93836000 -1.04030000e-02
-3.90836000 -1.02557000e-02
-3.87836000 -1.01190000e-02
-3.84836000 -9.99822000e-03
-3.81836000 -9.90344000e-03
-3.78836000 -9.85588000e-03
-3.73330000 -1.00803000e-02
-3.70330000 -1.04767000e-02
-3.67330000 -1.05097000e-02
-3.64330000 -1.01214000e-02
-3.61330000 -1.00932000e-02
-3.58330000 -1.06601000e-02
-3.55330000 -1.14005000e-02
-3.52330000 -1.06777000e-02
-3.49330000 -9.45579000e-03
-3.46330000 -8.69898000e-03
-3.43330000 -8.24669000e-03
-3.40330000 -7.93828000e-03
-3.37330000 -7.70061000e-03
-3.34330000 -7.50097000e-03
-3.31330000 -7.32360000e-03
-3.28330000 -7.16031000e-03
-3.22824000 -6.88327000e-03
-3.19824000 -6.74057000e-03
-3.16824000 -6.60200000e-03
-3.13824000 -6.46676000e-03
-3.10824000 -6.33431000e-03
-3.07824000 -6.20424000e-03
-3.04824000 -6.07627000e-03
-3.01824000 -5.95018000e-03
-2.98824000 -5.82579000e-03
-2.95824000 -5.70296000e-03
-2.92824000 -5.58160000e-03
-2.89824000 -5.46162000e-03
-2.86824000 -5.34293000e-03
-2.83824000 -5.22547000e-03
-2.80824000 -5.10919000e-03
-2.77824000 -4.99405000e-03
-2.72317000 -4.78551000e-03
-2.69317000 -4.67336000e-03
-2.66317000 -4.56220000e-03
-2.63317000 -4.45200000e-03
-2.60317000 -4.34274000e-03
-2.57317000 -4.23438000e-03
-2.54317000 -4.12691000e-03
-2.51317000 -4.02031000e-03
-2.48317000 -3.91455000e-03
-2.45317000 -3.80961000e-03
-2.42317000 -3.70548000e-03
-2.39317000 -3.60214000e-03
-2.36317000 -3.49956000e-03
-2.33317000 -3.39773000e-03
-2.30317000 -3.29664000e-03
-2.27317000 -3.19627000e-03
-2.21811000 -3.01386000e-03
-2.18811000 -2.91545000e-03
-2.15811000 -2.81771000e-03
-2.12811000 -2.72061000e-03
-2.09811000 -2.62415000e-03
-2.06811000 -2.52831000e-03
-2.03811000 -2.43309000e-03
-2.00811000 -2.33847000e-03
-1.97811000 -2.24443000e-03
-1.94811000 -2.15098000e-03
-1.91811000 -2.05808000e-03
-1.88811000 -1.96574000e-03
-1.85811000 -1.87395000e-03
-1.82811000 -1.78268000e-03
-1.79811000 -1.69194000e-03
-1.76811000 -1.60171000e-03
-1.71305000 -1.43740000e-03
-1.68305000 -1.34856000e-03
-1.65305000 -1.26021000e-03
-1.62305000 -1.17231000e-03
-1.59305000 -1.08488000e-03
-1.56305000 -9.97885000e-04
-1.53305000 -9.11334000e-04
-1.50305000 -8.25212000e-04
-1.47305000 -7.39511000e-04
-1.44305000 -6.54223000e-04
-1.41305000 -5.69339000e-04
-1.38305000 -4.84853000e-04
-1.35305000 -4.00754000e-04
-1.32305000 -3.17037000e-04
-1.29305000 -2.33693000e-04
-1.26305000 -1.50715000e-04
-1.20798000 6.60540000e-07
-1.17798000 8.26421000e-05
-1.14798000 1.64286000e-04
-1.11798000 2.45599000e-04
-1.08798000 3.26588000e-04
-1.05798000 4.07260000e-04
-1.02798000 4.87622000e-04
-0.99798300 5.67679000e-04
-0.96798300 6.47440000e-04
-0.93798300 7.26910000e-04
-0.90798300 8.06095000e-04
-0.87798300 8.85002000e-04
-0.84798300 9.63637000e-04
-0.81798300 1.04201000e-03
-0.78798300 1.12011000e-03
-0.75798300 1.19797000e-03
-0.70292000 1.34022000e-03
-0.67292000 1.41739000e-03
-0.64292000 1.49432000e-03
-0.61292000 1.57103000e-03
-0.58292000 1.64751000e-03
-0.55292000 1.72378000e-03
-0.52292000 1.79984000e-03
-0.49292000 1.87570000e-03
-0.46292000 1.95135000e-03
-0.43292000 2.02682000e-03
-0.40292000 2.10209000e-03
-0.37292000 2.17717000e-03
-0.34292000 2.25208000e-03
-0.31292000 2.32681000e-03
-0.28292000 2.40138000e-03
-0.25292000 2.47578000e-03
-0.19785700 2.61192000e-03
-0.16785700 2.68588000e-03
-0.13785700 2.75969000e-03
-0.10785700 2.83336000e-03
-0.07785670 2.90690000e-03
-0.04785670 2.98030000e-03
-0.01785670 3.05357000e-03
0.01214330 3.12672000e-03
0.04214330 3.19975000e-03
0.07214330 3.27267000e-03
0.10214300 3.34548000e-03
0.13214300 3.41818000e-03
0.16214300 3.49077000e-03
0.19214300 3.56328000e-03
0.22214300 3.63568000e-03
0.25214300 3.70800000e-03
0.30720700 3.84052000e-03
0.33720700 3.91261000e-03
0.36720700 3.98463000e-03
0.39720700 4.05657000e-03
0.42720700 4.12845000e-03
0.45720700 4.20027000e-03
0.48720700 4.27204000e-03
0.51720700 4.34375000e-03
0.54720700 4.41541000e-03
0.57720700 4.48703000e-03
0.60720700 4.55860000e-03
0.63720700 4.63014000e-03
0.66720700 4.70164000e-03
0.69720700 4.77312000e-03
0.72720700 4.84456000e-03
0.75720700 4.91599000e-03
