# E(MeV)  S_NSDRNSDR(Total=K0+2*K1) for Cu69_DDPCX
-4.23836000 -3.84426000e-02
-4.20836000 -3.78606000e-02
-4.17836000 -3.72883000e-02
-4.14836000 -3.67261000e-02
-4.11836000 -3.61746000e-02
-4.08836000 -3.56340000e-02
-4.05836000 -3.51057000e-02
-4.02836000 -3.45905000e-02
-3.99836000 -3.40906000e-02
-3.96836000 -3.36092000e-02
-3.93836000 -3.31511000e-02
-3.90836000 -3.27245000e-02
-3.87836000 -3.23432000e-02
-3.84836000 -3.20325400e-02
-3.81836000 -3.18421800e-02
-3.78836000 -3.18770600e-02
-3.73330000 -3.34877000e-02
-3.70330000 -3.58917000e-02
-3.67330000 -3.65946000e-02
-3.64330000 -3.39814000e-02
-3.61330000 -3.23077000e-02
-3.58330000 -3.25354000e-02
-3.55330000 -3.34760000e-02
-3.52330000 -3.16618000e-02
-3.49330000 -2.89355800e-02
-3.46330000 -2.71869100e-02
-3.43330000 -2.60753900e-02
-3.40330000 -2.52695200e-02
-3.37330000 -2.46172100e-02
-3.34330000 -2.40495600e-02
-3.31330000 -2.35328800e-02
-3.28330000 -2.30493500e-02
-3.22824000 -2.22171600e-02
-3.19824000 -2.17845900e-02
-3.16824000 -2.13628200e-02
-3.13824000 -2.09499700e-02
-3.10824000 -2.05447500e-02
-3.07824000 -2.01461500e-02
-3.04824000 -1.97535000e-02
-3.01824000 -1.93662200e-02
-2.98824000 -1.89838700e-02
-2.95824000 -1.86061000e-02
-2.92824000 -1.82326400e-02
-2.89824000 -1.78632800e-02
-2.86824000 -1.74977600e-02
-2.83824000 -1.71359400e-02
-2.80824000 -1.67776700e-02
-2.77824000 -1.64228300e-02
-2.72317000 -1.57800100e-02
-2.69317000 -1.54342400e-02
-2.66317000 -1.50914800e-02
-2.63317000 -1.47516600e-02
-2.60317000 -1.44147100e-02
-2.57317000 -1.40805100e-02
-2.54317000 -1.37490400e-02
-2.51317000 -1.34202300e-02
-2.48317000 -1.30940100e-02
-2.45317000 -1.27703000e-02
-2.42317000 -1.24490800e-02
-2.39317000 -1.21302900e-02
-2.36317000 -1.18138400e-02
-2.33317000 -1.14997100e-02
-2.30317000 -1.11878600e-02
-2.27317000 -1.08782200e-02
-2.21811000 -1.03155200e-02
-2.18811000 -1.00119400e-02
-2.15811000 -9.71043000e-03
-2.12811000 -9.41091000e-03
-2.09811000 -9.11337000e-03
-2.06811000 -8.81775000e-03
-2.03811000 -8.52405000e-03
-2.00811000 -8.23220000e-03
-1.97811000 -7.94217000e-03
-1.94811000 -7.65395000e-03
-1.91811000 -7.36746000e-03
-1.88811000 -7.08270000e-03
-1.85811000 -6.79964000e-03
-1.82811000 -6.51821000e-03
-1.79811000 -6.23842000e-03
-1.76811000 -5.96022000e-03
-1.71305000 -5.45366000e-03
-1.68305000 -5.17980000e-03
-1.65305000 -4.90745000e-03
-1.62305000 -4.63652000e-03
-1.59305000 -4.36705000e-03
-1.56305000 -4.09894000e-03
-1.53305000 -3.83221800e-03
-1.50305000 -3.56683400e-03
-1.47305000 -3.30277200e-03
-1.44305000 -3.03999600e-03
-1.41305000 -2.77848800e-03
-1.38305000 -2.51822600e-03
-1.35305000 -2.25917800e-03
-1.32305000 -2.00133400e-03
-1.29305000 -1.74465600e-03
-1.26305000 -1.48912000e-03
-1.20798000 -1.02301892e-03
-1.17798000 -7.70612800e-04
-1.14798000 -5.19275000e-04
-1.11798000 -2.68977000e-04
-1.08798000 -1.97000000e-05
-1.05798000 2.28578000e-04
-1.02798000 4.75878000e-04
-0.99798300 7.22218000e-04
-0.96798300 9.67621000e-04
-0.93798300 1.21210600e-03
-0.90798300 1.45569000e-03
-0.87798300 1.69839460e-03
-0.84798300 1.94023790e-03
-0.81798300 2.18124660e-03
-0.78798300 2.42140500e-03
-0.75798300 2.66078500e-03
-0.70292000 3.09808500e-03
-0.67292000 3.33527400e-03
-0.64292000 3.57170800e-03
-0.61292000 3.80743400e-03
-0.58292000 4.04243800e-03
-0.55292000 4.27676400e-03
-0.52292000 4.51041900e-03
-0.49292000 4.74342900e-03
-0.46292000 4.97578000e-03
-0.43292000 5.20753000e-03
-0.40292000 5.43866000e-03
-0.37292000 5.66919000e-03
-0.34292000 5.89915000e-03
-0.31292000 6.12854000e-03
-0.28292000 6.35741000e-03
-0.25292000 6.58573000e-03
-0.19785700 7.00346000e-03
-0.16785700 7.23036000e-03
-0.13785700 7.45678000e-03
-0.10785700 7.68273000e-03
-0.07785670 7.90826000e-03
-0.04785670 8.13333000e-03
-0.01785670 8.35799000e-03
0.01214330 8.58224000e-03
0.04214330 8.80610000e-03
0.07214330 9.02959000e-03
0.10214300 9.25272000e-03
0.13214300 9.47549000e-03
0.16214300 9.69790000e-03
0.19214300 9.92002000e-03
0.22214300 1.01418000e-02
0.25214300 1.03633000e-02
0.30720700 1.07691000e-02
0.33720700 1.09898100e-02
0.36720700 1.12102800e-02
0.39720700 1.14304900e-02
0.42720700 1.16504800e-02
0.45720700 1.18702600e-02
0.48720700 1.20898500e-02
0.51720700 1.23092400e-02
0.54720700 1.25284600e-02
0.57720700 1.27475100e-02
0.60720700 1.29664000e-02
0.63720700 1.31851500e-02
0.66720700 1.34037700e-02
0.69720700 1.36222800e-02
0.72720700 1.38406600e-02
0.75720700 1.40589800e-02
