# E(MeV)  S_GAMTGAMT(K=1) for Cu69_DDPCX
-4.23836000 -1.52426000e-03
-4.20836000 -1.02854000e-03
-4.17836000 1.11274000e-06
-4.14836000 5.93081000e-04
-4.11836000 8.93673000e-04
-4.08836000 1.05802000e-03
-4.05836000 1.15657000e-03
-4.02836000 1.22051000e-03
-3.99836000 1.26460000e-03
-3.96836000 1.29628000e-03
-3.93836000 1.31941000e-03
-3.90836000 1.33592000e-03
-3.87836000 1.34647000e-03
-3.84836000 1.35058000e-03
-3.81836000 1.34640000e-03
-3.78836000 1.32975000e-03
-3.73330000 1.23029000e-03
-3.70330000 1.08528000e-03
-3.67330000 7.81357000e-04
-3.64330000 2.68028000e-04
-3.61330000 1.29662000e-04
-3.58330000 6.51994000e-04
-3.55330000 1.06048000e-03
-3.52330000 1.27163000e-03
-3.49330000 1.38208000e-03
-3.46330000 1.44039000e-03
-3.43330000 1.46837000e-03
-3.40330000 1.50157000e-03
-3.37330000 1.55036000e-03
-3.34330000 1.58894000e-03
-3.31330000 1.61755000e-03
-3.28330000 1.64080000e-03
-3.22824000 1.67677000e-03
-3.19824000 1.69447000e-03
-3.16824000 1.71143000e-03
-3.13824000 1.72790000e-03
-3.10824000 1.74404000e-03
-3.07824000 1.75998000e-03
-3.04824000 1.77580000e-03
-3.01824000 1.79155000e-03
-2.98824000 1.80729000e-03
-2.95824000 1.82304000e-03
-2.92824000 1.83884000e-03
-2.89824000 1.85470000e-03
-2.86824000 1.87064000e-03
-2.83824000 1.88668000e-03
-2.80824000 1.90282000e-03
-2.77824000 1.91906000e-03
-2.72317000 1.94913000e-03
-2.69317000 1.96566000e-03
-2.66317000 1.98226000e-03
-2.63317000 1.99893000e-03
-2.60317000 2.01563000e-03
-2.57317000 2.03232000e-03
-2.54317000 2.04893000e-03
-2.51317000 2.06539000e-03
-2.48317000 2.08157000e-03
-2.45317000 2.09729000e-03
-2.42317000 2.11227000e-03
-2.39317000 2.12610000e-03
-2.36317000 2.13812000e-03
-2.33317000 2.14724000e-03
-2.30317000 2.15157000e-03
-2.27317000 2.14764000e-03
-2.21811000 2.09088000e-03
-2.18811000 1.99306000e-03
-2.15811000 1.77626000e-03
-2.12811000 1.38547000e-03
-2.09811000 1.23021000e-03
-2.06811000 1.64471000e-03
-2.03811000 2.00394000e-03
-2.00811000 2.19996000e-03
-1.97811000 2.31271000e-03
-1.94811000 2.38685000e-03
-1.91811000 2.44198000e-03
-1.88811000 2.48703000e-03
-1.85811000 2.52644000e-03
-1.82811000 2.56258000e-03
-1.79811000 2.59677000e-03
-1.76811000 2.62983000e-03
-1.71305000 2.68916000e-03
-1.68305000 2.72127000e-03
-1.65305000 2.75349000e-03
-1.62305000 2.78593000e-03
-1.59305000 2.81871000e-03
-1.56305000 2.85189000e-03
-1.53305000 2.88554000e-03
-1.50305000 2.91972000e-03
-1.47305000 2.95447000e-03
-1.44305000 2.98984000e-03
-1.41305000 3.02586000e-03
-1.38305000 3.06259000e-03
-1.35305000 3.10004000e-03
-1.32305000 3.13825000e-03
-1.29305000 3.17727000e-03
-1.26305000 3.21713000e-03
-1.20798000 3.29257000e-03
-1.17798000 3.33499000e-03
-1.14798000 3.37838000e-03
-1.11798000 3.42279000e-03
-1.08798000 3.46826000e-03
-1.05798000 3.51483000e-03
-1.02798000 3.56254000e-03
-0.99798300 3.61144000e-03
-0.96798300 3.66157000e-03
-0.93798300 3.71300000e-03
-0.90798300 3.76578000e-03
-0.87798300 3.81995000e-03
-0.84798300 3.87558000e-03
-0.81798300 3.93274000e-03
-0.78798300 3.99149000e-03
-0.75798300 4.05189000e-03
-0.70292000 4.16734000e-03
-0.67292000 4.23287000e-03
-0.64292000 4.30038000e-03
-0.61292000 4.36996000e-03
-0.58292000 4.44170000e-03
-0.55292000 4.51572000e-03
-0.52292000 4.59212000e-03
-0.49292000 4.67103000e-03
-0.46292000 4.75259000e-03
-0.43292000 4.83692000e-03
-0.40292000 4.92417000e-03
-0.37292000 5.01452000e-03
-0.34292000 5.10813000e-03
-0.31292000 5.20518000e-03
-0.28292000 5.30588000e-03
-0.25292000 5.41044000e-03
-0.19785700 5.61319000e-03
-0.16785700 5.73003000e-03
-0.13785700 5.85174000e-03
-0.10785700 5.97863000e-03
-0.07785670 6.11105000e-03
-0.04785670 6.24937000e-03
-0.01785670 6.39402000e-03
0.01214330 6.54544000e-03
0.04214330 6.70414000e-03
0.07214330 6.87064000e-03
0.10214300 7.04556000e-03
0.13214300 7.22956000e-03
0.16214300 7.42336000e-03
0.19214300 7.62779000e-03
0.22214300 7.84375000e-03
0.25214300 8.07225000e-03
0.30720700 8.52811000e-03
0.33720700 8.79875000e-03
0.36720700 9.08706000e-03
0.39720700 9.39482000e-03
0.42720700 9.72405000e-03
0.45720700 1.00770000e-02
0.48720700 1.04564000e-02
0.51720700 1.08652000e-02
0.54720700 1.13069000e-02
0.57720700 1.17854000e-02
0.60720700 1.23056000e-02
0.63720700 1.28729000e-02
0.66720700 1.34937000e-02
0.69720700 1.41756000e-02
0.72720700 1.49279000e-02
0.75720700 1.57613000e-02
