# E(MeV)  S_NSDRNSDR(K=0) for Cu69_DDPCX
-4.23836000 -1.41380000e-02
-4.20836000 -1.39378000e-02
-4.17836000 -1.37411000e-02
-4.14836000 -1.35481000e-02
-4.11836000 -1.33590000e-02
-4.08836000 -1.31742000e-02
-4.05836000 -1.29943000e-02
-4.02836000 -1.28199000e-02
-3.99836000 -1.26522000e-02
-3.96836000 -1.24930000e-02
-3.93836000 -1.23451000e-02
-3.90836000 -1.22131000e-02
-3.87836000 -1.21052000e-02
-3.84836000 -1.20361000e-02
-3.81836000 -1.20353000e-02
-3.78836000 -1.21653000e-02
-3.73330000 -1.33271000e-02
-3.70330000 -1.49383000e-02
-3.67330000 -1.55752000e-02
-3.64330000 -1.37386000e-02
-3.61330000 -1.21213000e-02
-3.58330000 -1.12152000e-02
-3.55330000 -1.06750000e-02
-3.52330000 -1.03064000e-02
-3.49330000 -1.00240000e-02
-3.46330000 -9.78895000e-03
-3.43330000 -9.58201000e-03
-3.40330000 -9.39296000e-03
-3.37330000 -9.21599000e-03
-3.34330000 -9.04762000e-03
-3.31330000 -8.88568000e-03
-3.28330000 -8.72873000e-03
-3.22824000 -8.45062000e-03
-3.19824000 -8.30345000e-03
-3.16824000 -8.15882000e-03
-3.13824000 -8.01645000e-03
-3.10824000 -7.87613000e-03
-3.07824000 -7.73767000e-03
-3.04824000 -7.60096000e-03
-3.01824000 -7.46586000e-03
-2.98824000 -7.33229000e-03
-2.95824000 -7.20018000e-03
-2.92824000 -7.06944000e-03
-2.89824000 -6.94004000e-03
-2.86824000 -6.81190000e-03
-2.83824000 -6.68500000e-03
-2.80824000 -6.55929000e-03
-2.77824000 -6.43473000e-03
-2.72317000 -6.20899000e-03
-2.69317000 -6.08752000e-03
-2.66317000 -5.96708000e-03
-2.63317000 -5.84766000e-03
-2.60317000 -5.72923000e-03
-2.57317000 -5.61175000e-03
-2.54317000 -5.49522000e-03
-2.51317000 -5.37961000e-03
-2.48317000 -5.26491000e-03
-2.45317000 -5.15108000e-03
-2.42317000 -5.03812000e-03
-2.39317000 -4.92601000e-03
-2.36317000 -4.81472000e-03
-2.33317000 -4.70425000e-03
-2.30317000 -4.59458000e-03
-2.27317000 -4.48568000e-03
-2.21811000 -4.28780000e-03
-2.18811000 -4.18104000e-03
-2.15811000 -4.07501000e-03
-2.12811000 -3.96969000e-03
-2.09811000 -3.86507000e-03
-2.06811000 -3.76113000e-03
-2.03811000 -3.65787000e-03
-2.00811000 -3.55526000e-03
-1.97811000 -3.45331000e-03
-1.94811000 -3.35199000e-03
-1.91811000 -3.25130000e-03
-1.88811000 -3.15122000e-03
-1.85811000 -3.05174000e-03
-1.82811000 -2.95285000e-03
-1.79811000 -2.85454000e-03
-1.76811000 -2.75680000e-03
-1.71305000 -2.57886000e-03
-1.68305000 -2.48268000e-03
-1.65305000 -2.38703000e-03
-1.62305000 -2.29190000e-03
-1.59305000 -2.19729000e-03
-1.56305000 -2.10317000e-03
-1.53305000 -2.00955000e-03
-1.50305000 -1.91641000e-03
-1.47305000 -1.82375000e-03
-1.44305000 -1.73155000e-03
-1.41305000 -1.63981000e-03
-1.38305000 -1.54852000e-03
-1.35305000 -1.45767000e-03
-1.32305000 -1.36726000e-03
-1.29305000 -1.27727000e-03
-1.26305000 -1.18769000e-03
-1.20798000 -1.02434000e-03
-1.17798000 -9.35897000e-04
-1.14798000 -8.47847000e-04
-1.11798000 -7.60175000e-04
-1.08798000 -6.72876000e-04
-1.05798000 -5.85942000e-04
-1.02798000 -4.99366000e-04
-0.99798300 -4.13140000e-04
-0.96798300 -3.27259000e-04
-0.93798300 -2.41714000e-04
-0.90798300 -1.56500000e-04
-0.87798300 -7.16094000e-05
-0.84798300 1.29639000e-05
-0.81798300 9.72266000e-05
-0.78798300 1.81185000e-04
-0.75798300 2.64845000e-04
-0.70292000 4.17645000e-04
-0.67292000 5.00494000e-04
-0.64292000 5.83068000e-04
-0.61292000 6.65374000e-04
-0.58292000 7.47418000e-04
-0.55292000 8.29204000e-04
-0.52292000 9.10739000e-04
-0.49292000 9.92029000e-04
-0.46292000 1.07308000e-03
-0.43292000 1.15389000e-03
-0.40292000 1.23448000e-03
-0.37292000 1.31485000e-03
-0.34292000 1.39499000e-03
-0.31292000 1.47492000e-03
-0.28292000 1.55465000e-03
-0.25292000 1.63417000e-03
-0.19785700 1.77962000e-03
-0.16785700 1.85860000e-03
-0.13785700 1.93740000e-03
-0.10785700 2.01601000e-03
-0.07785670 2.09446000e-03
-0.04785670 2.17273000e-03
-0.01785670 2.25085000e-03
0.01214330 2.32880000e-03
0.04214330 2.40660000e-03
0.07214330 2.48425000e-03
0.10214300 2.56176000e-03
0.13214300 2.63913000e-03
0.16214300 2.71636000e-03
0.19214300 2.79346000e-03
0.22214300 2.87044000e-03
0.25214300 2.94730000e-03
0.30720700 3.08806000e-03
0.33720700 3.16459000e-03
0.36720700 3.24102000e-03
0.39720700 3.31735000e-03
0.42720700 3.39358000e-03
0.45720700 3.46972000e-03
0.48720700 3.54577000e-03
0.51720700 3.62174000e-03
0.54720700 3.69764000e-03
0.57720700 3.77345000e-03
0.60720700 3.84920000e-03
0.63720700 3.92487000e-03
0.66720700 4.00049000e-03
0.69720700 4.07604000e-03
0.72720700 4.15154000e-03
0.75720700 4.22700000e-03
