# E(MeV)  S_GAMTGAMT(K=0) for Cu78_DDPCX
-15.51720000 7.32004000e-04
-15.48720000 7.34443000e-04
-15.45720000 7.36894000e-04
-15.42720000 7.39357000e-04
-15.39720000 7.41832000e-04
-15.36720000 7.44319000e-04
-15.33720000 7.46818000e-04
-15.30720000 7.49330000e-04
-15.27720000 7.51853000e-04
-15.24720000 7.54390000e-04
-15.21720000 7.56938000e-04
-15.18720000 7.59500000e-04
-15.15720000 7.62074000e-04
-15.12720000 7.64661000e-04
-15.09720000 7.67262000e-04
-15.06720000 7.69875000e-04
-15.03720000 7.72502000e-04
-15.00720000 7.75141000e-04
-14.97720000 7.77795000e-04
-14.94720000 7.80462000e-04
-14.91720000 7.83142000e-04
-14.88720000 7.85836000e-04
-14.85720000 7.88545000e-04
-14.82720000 7.91267000e-04
-14.79720000 7.94003000e-04
-14.76720000 7.96753000e-04
-14.73720000 7.99518000e-04
-14.70720000 8.02297000e-04
-14.67720000 8.05091000e-04
-14.64720000 8.07899000e-04
-14.61720000 8.10723000e-04
-14.58720000 8.13561000e-04
-14.55720000 8.16414000e-04
-14.52720000 8.19282000e-04
-14.49720000 8.22166000e-04
-14.46720000 8.25065000e-04
-14.43720000 8.27979000e-04
-14.40720000 8.30909000e-04
-14.37720000 8.33855000e-04
-14.34720000 8.36817000e-04
-14.31720000 8.39795000e-04
-14.28720000 8.42789000e-04
-14.25720000 8.45799000e-04
-14.22720000 8.48826000e-04
-14.19720000 8.51869000e-04
-14.16720000 8.54929000e-04
-14.13720000 8.58006000e-04
-14.10720000 8.61100000e-04
-14.07720000 8.64211000e-04
-14.04720000 8.67339000e-04
-14.01720000 8.70485000e-04
-13.98720000 8.73648000e-04
-13.95720000 8.76829000e-04
-13.92720000 8.80027000e-04
-13.88430000 8.84638000e-04
-13.85430000 8.87880000e-04
-13.82430000 8.91141000e-04
-13.79430000 8.94421000e-04
-13.76430000 8.97719000e-04
-13.73430000 9.01036000e-04
-13.70430000 9.04371000e-04
-13.67430000 9.07726000e-04
-13.64430000 9.11100000e-04
-13.61430000 9.14494000e-04
-13.58430000 9.17907000e-04
-13.55430000 9.21340000e-04
-13.52430000 9.24793000e-04
-13.49430000 9.28266000e-04
-13.46430000 9.31759000e-04
-13.43430000 9.35273000e-04
-13.40430000 9.38807000e-04
-13.37430000 9.42362000e-04
-13.34430000 9.45939000e-04
-13.31430000 9.49536000e-04
-13.28430000 9.53154000e-04
-13.25430000 9.56794000e-04
-13.22430000 9.60456000e-04
-13.19430000 9.64140000e-04
-13.16430000 9.67845000e-04
-13.13430000 9.71573000e-04
-13.10430000 9.75324000e-04
-13.07430000 9.79097000e-04
-13.04430000 9.82893000e-04
-13.01430000 9.86712000e-04
-12.98430000 9.90554000e-04
-12.95430000 9.94420000e-04
-12.92430000 9.98310000e-04
-12.89430000 1.00222000e-03
-12.86430000 1.00616000e-03
-12.83430000 1.01012000e-03
-12.80430000 1.01411000e-03
-12.77430000 1.01812000e-03
-12.74430000 1.02216000e-03
-12.71430000 1.02622000e-03
-12.68430000 1.03030000e-03
-12.65430000 1.03441000e-03
-12.62430000 1.03855000e-03
-12.59430000 1.04272000e-03
-12.56430000 1.04691000e-03
-12.53430000 1.05112000e-03
-12.50430000 1.05537000e-03
-12.47430000 1.05964000e-03
-12.44430000 1.06394000e-03
-12.41430000 1.06826000e-03
-12.38430000 1.07262000e-03
-12.35430000 1.07700000e-03
-12.32430000 1.08141000e-03
-12.29430000 1.08585000e-03
-12.25130000 1.09225000e-03
-12.22130000 1.09676000e-03
-12.19130000 1.10130000e-03
-12.16130000 1.10587000e-03
-12.13130000 1.11047000e-03
-12.10130000 1.11510000e-03
-12.07130000 1.11976000e-03
-12.04130000 1.12445000e-03
-12.01130000 1.12917000e-03
-11.98130000 1.13393000e-03
-11.95130000 1.13871000e-03
-11.92130000 1.14353000e-03
-11.89130000 1.14838000e-03
-11.86130000 1.15326000e-03
-11.83130000 1.15818000e-03
-11.80130000 1.16313000e-03
-11.77130000 1.16811000e-03
-11.74130000 1.17313000e-03
-11.71130000 1.17818000e-03
-11.68130000 1.18327000e-03
-11.65130000 1.18839000e-03
-11.62130000 1.19355000e-03
-11.59130000 1.19874000e-03
-11.56130000 1.20397000e-03
-11.53130000 1.20924000e-03
-11.50130000 1.21454000e-03
-11.47130000 1.21988000e-03
-11.44130000 1.22526000e-03
-11.41130000 1.23068000e-03
-11.38130000 1.23613000e-03
-11.35130000 1.24163000e-03
-11.32130000 1.24716000e-03
-11.29130000 1.25273000e-03
-11.26130000 1.25835000e-03
-11.23130000 1.26400000e-03
-11.20130000 1.26969000e-03
-11.17130000 1.27543000e-03
-11.14130000 1.28121000e-03
-11.11130000 1.28702000e-03
-11.08130000 1.29289000e-03
-11.05130000 1.29879000e-03
-11.02130000 1.30474000e-03
-10.99130000 1.31073000e-03
-10.96130000 1.31677000e-03
-10.93130000 1.32285000e-03
-10.90130000 1.32898000e-03
-10.87130000 1.33515000e-03
-10.84130000 1.34137000e-03
-10.81130000 1.34764000e-03
-10.78130000 1.35396000e-03
-10.75130000 1.36032000e-03
-10.72130000 1.36673000e-03
-10.69130000 1.37319000e-03
-10.66130000 1.37970000e-03
-10.61840000 1.38911000e-03
-10.58840000 1.39574000e-03
-10.55840000 1.40242000e-03
-10.52840000 1.40916000e-03
-10.49840000 1.41595000e-03
-10.46840000 1.42279000e-03
-10.43840000 1.42969000e-03
-10.40840000 1.43664000e-03
-10.37840000 1.44364000e-03
-10.34840000 1.45071000e-03
-10.31840000 1.45782000e-03
-10.28840000 1.46500000e-03
-10.25840000 1.47223000e-03
-10.22840000 1.47952000e-03
-10.19840000 1.48687000e-03
-10.16840000 1.49428000e-03
-10.13840000 1.50176000e-03
-10.10840000 1.50929000e-03
-10.07840000 1.51688000e-03
-10.04840000 1.52454000e-03
-10.01840000 1.53226000e-03
-9.98838000 1.54005000e-03
-9.95838000 1.54790000e-03
-9.92838000 1.55581000e-03
-9.89838000 1.56379000e-03
-9.86838000 1.57184000e-03
-9.83838000 1.57996000e-03
-9.80838000 1.58815000e-03
-9.77838000 1.59641000e-03
-9.74838000 1.60474000e-03
-9.71838000 1.61314000e-03
-9.68838000 1.62161000e-03
-9.65838000 1.63016000e-03
-9.62838000 1.63878000e-03
-9.59838000 1.64748000e-03
-9.56838000 1.65625000e-03
-9.53838000 1.66510000e-03
-9.50838000 1.67403000e-03
-9.47838000 1.68304000e-03
-9.44838000 1.69213000e-03
-9.41838000 1.70130000e-03
-9.38838000 1.71055000e-03
-9.35838000 1.71989000e-03
-9.32838000 1.72932000e-03
-9.29838000 1.73882000e-03
-9.26838000 1.74842000e-03
-9.23838000 1.75811000e-03
-9.20838000 1.76788000e-03
-9.17838000 1.77775000e-03
-9.14838000 1.78770000e-03
-9.11838000 1.79776000e-03
-9.08838000 1.80790000e-03
-9.05838000 1.81814000e-03
-9.02838000 1.82848000e-03
-8.98543000 1.84346000e-03
-8.95543000 1.85404000e-03
-8.92543000 1.86473000e-03
-8.89543000 1.87551000e-03
-8.86543000 1.88641000e-03
-8.83543000 1.89741000e-03
-8.80543000 1.90852000e-03
-8.77543000 1.91974000e-03
-8.74543000 1.93107000e-03
-8.71543000 1.94251000e-03
-8.68543000 1.95407000e-03
-8.65543000 1.96575000e-03
-8.62543000 1.97754000e-03
-8.59543000 1.98946000e-03
-8.56543000 2.00150000e-03
-8.53543000 2.01366000e-03
-8.50543000 2.02595000e-03
-8.47543000 2.03836000e-03
-8.44543000 2.05091000e-03
-8.41543000 2.06359000e-03
-8.38543000 2.07640000e-03
-8.35543000 2.08935000e-03
-8.32543000 2.10244000e-03
-8.29543000 2.11566000e-03
-8.26543000 2.12904000e-03
-8.23543000 2.14255000e-03
-8.20543000 2.15622000e-03
-8.17543000 2.17004000e-03
-8.14543000 2.18401000e-03
-8.11543000 2.19813000e-03
-8.08543000 2.21241000e-03
-8.05543000 2.22686000e-03
-8.02543000 2.24147000e-03
-7.99543000 2.25624000e-03
-7.96543000 2.27119000e-03
-7.93543000 2.28631000e-03
-7.90543000 2.30160000e-03
-7.87543000 2.31707000e-03
-7.84543000 2.33273000e-03
-7.81543000 2.34857000e-03
-7.78543000 2.36460000e-03
-7.75543000 2.38083000e-03
-7.72543000 2.39725000e-03
-7.69543000 2.41387000e-03
-7.66543000 2.43069000e-03
-7.63543000 2.44773000e-03
-7.60543000 2.46497000e-03
-7.57543000 2.48243000e-03
-7.54543000 2.50012000e-03
-7.51543000 2.51802000e-03
-7.48543000 2.53616000e-03
-7.45543000 2.55453000e-03
-7.42543000 2.57315000e-03
-7.39543000 2.59200000e-03
-7.35248000 2.61943000e-03
-7.32248000 2.63891000e-03
-7.29248000 2.65865000e-03
-7.26248000 2.67865000e-03
-7.23248000 2.69893000e-03
-7.20248000 2.71950000e-03
-7.17248000 2.74035000e-03
-7.14248000 2.76149000e-03
-7.11248000 2.78294000e-03
-7.08248000 2.80470000e-03
-7.05248000 2.82677000e-03
-7.02248000 2.84917000e-03
-6.99248000 2.87190000e-03
-6.96248000 2.89497000e-03
-6.93248000 2.91839000e-03
-6.90248000 2.94217000e-03
-6.87248000 2.96632000e-03
-6.84248000 2.99085000e-03
-6.81248000 3.01576000e-03
-6.78248000 3.04108000e-03
-6.75248000 3.06681000e-03
-6.72248000 3.09297000e-03
-6.69248000 3.11956000e-03
-6.66248000 3.14660000e-03
-6.63248000 3.17410000e-03
-6.60248000 3.20209000e-03
-6.57248000 3.23057000e-03
-6.54248000 3.25956000e-03
-6.51248000 3.28908000e-03
-6.48248000 3.31914000e-03
-6.45248000 3.34978000e-03
-6.42248000 3.38100000e-03
-6.39248000 3.41284000e-03
-6.36248000 3.44531000e-03
-6.33248000 3.47845000e-03
-6.30248000 3.51228000e-03
-6.27248000 3.54682000e-03
-6.24248000 3.58212000e-03
-6.21248000 3.61821000e-03
-6.18248000 3.65513000e-03
-6.15248000 3.69293000e-03
-6.12248000 3.73163000e-03
-6.09248000 3.77131000e-03
-6.06248000 3.81202000e-03
-6.03248000 3.85381000e-03
-6.00248000 3.89677000e-03
-5.97248000 3.94096000e-03
-5.94248000 3.98649000e-03
-5.91248000 4.03345000e-03
-5.88248000 4.08195000e-03
-5.85248000 4.13213000e-03
-5.82248000 4.18415000e-03
-5.79248000 4.23817000e-03
-5.76248000 4.29442000e-03
-5.71953000 4.37931000e-03
-5.68953000 4.44208000e-03
-5.65953000 4.50814000e-03
-5.62953000 4.57796000e-03
-5.59953000 4.65211000e-03
-5.56953000 4.73131000e-03
-5.53953000 4.81647000e-03
-5.50953000 4.90873000e-03
-5.47953000 5.00960000e-03
-5.44953000 5.12104000e-03
-5.41953000 5.24570000e-03
-5.38953000 5.38718000e-03
-5.35953000 5.55052000e-03
-5.32953000 5.74293000e-03
-5.29953000 5.97502000e-03
-5.26953000 6.26291000e-03
-5.23953000 6.63203000e-03
-5.20953000 7.12432000e-03
-5.17953000 7.81254000e-03
-5.14953000 8.83094000e-03
-5.11953000 1.04457000e-02
-5.08953000 1.32273000e-02
-5.05953000 1.84750000e-02
-5.02953000 2.88619000e-02
-4.99953000 4.44901000e-02
-4.96953000 4.49983000e-02
-4.93953000 2.95800000e-02
-4.90953000 1.91446000e-02
-4.87953000 1.39535000e-02
-4.84953000 1.12928000e-02
-4.81953000 9.82800000e-03
-4.78953000 8.97383000e-03
-4.75953000 8.45806000e-03
-4.72953000 8.14396000e-03
-4.69953000 7.95776000e-03
-4.66953000 7.85725000e-03
-4.63953000 7.81704000e-03
-4.60953000 7.82127000e-03
-4.57953000 7.85972000e-03
-4.54953000 7.92569000e-03
-4.51953000 8.01470000e-03
-4.48953000 8.12383000e-03
-4.45953000 8.25116000e-03
-4.42953000 8.39557000e-03
-4.39953000 8.55651000e-03
-4.36953000 8.73389000e-03
-4.33953000 8.92801000e-03
-4.30953000 9.13952000e-03
-4.27953000 9.36940000e-03
-4.24953000 9.61896000e-03
-4.21953000 9.88987000e-03
-4.18953000 1.01842000e-02
-4.15953000 1.05044000e-02
-4.12953000 1.08534000e-02
-4.08658000 1.14107000e-02
-4.05658000 1.18465000e-02
-4.02658000 1.23268000e-02
-3.99658000 1.28585000e-02
-3.96658000 1.34498000e-02
-3.93658000 1.41111000e-02
-3.90658000 1.48550000e-02
-3.87658000 1.56972000e-02
-3.84658000 1.66577000e-02
-3.81658000 1.77621000e-02
-3.78658000 1.90430000e-02
-3.75658000 2.05438000e-02
-3.72658000 2.23217000e-02
-3.69658000 2.44545000e-02
-3.66658000 2.70495000e-02
-3.63658000 3.02583000e-02
-3.60658000 3.43003000e-02
-3.57658000 3.95026000e-02
-3.54658000 4.63691000e-02
-3.51658000 5.57075000e-02
-3.48658000 6.88731000e-02
-3.45658000 8.82688000e-02
-3.42658000 1.18439000e-01
-3.39658000 1.68649000e-01
-3.36658000 2.59295000e-01
-3.33658000 4.36794000e-01
-3.30658000 7.79289000e-01
-3.27658000 1.13996000e+00
-3.24658000 9.19307000e-01
-3.21658000 5.25524000e-01
-3.18658000 3.04986000e-01
-3.15658000 1.94536000e-01
-3.12658000 1.35417000e-01
-3.09658000 1.01137000e-01
-3.06658000 7.99057000e-02
-3.03658000 6.60910000e-02
-3.00658000 5.67906000e-02
-2.97658000 5.04093000e-02
-2.94658000 4.60254000e-02
-2.91658000 4.30888000e-02
-2.88658000 4.12693000e-02
-2.85658000 4.03788000e-02
-2.82658000 4.03333000e-02
-2.79658000 4.11396000e-02
-2.76658000 4.29058000e-02
-2.73658000 4.58807000e-02
-2.70658000 5.05462000e-02
-2.67658000 5.78237000e-02
-2.64658000 6.95520000e-02
-2.61658000 8.96600000e-02
-2.58658000 1.27034000e-01
-2.55658000 1.99726000e-01
-2.52658000 3.06989000e-01
-2.49658000 3.13147000e-01
-2.45363000 1.95303000e-01
-2.42363000 1.69113000e-01
-2.39363000 1.88469000e-01
-2.36363000 2.62599000e-01
-2.33363000 3.99232000e-01
-2.30363000 4.38329000e-01
-2.27363000 3.01632000e-01
-2.24363000 1.97388000e-01
-2.21363000 1.47877000e-01
-2.18363000 1.26844000e-01
-2.15363000 1.20810000e-01
-2.12363000 1.24549000e-01
-2.09363000 1.36766000e-01
-2.06363000 1.58637000e-01
-2.03363000 1.93960000e-01
-2.00363000 2.50802000e-01
-1.97363000 3.45940000e-01
-1.94363000 5.16126000e-01
-1.91363000 8.45414000e-01
-1.88363000 1.49619000e+00
-1.85363000 2.36468000e+00
-1.82363000 2.17819000e+00
-1.79363000 1.31774000e+00
-1.76363000 8.07092000e-01
-1.73363000 5.47130000e-01
-1.70363000 3.96690000e-01
-1.67363000 3.27861000e-01
-1.64363000 3.25358000e-01
-1.61363000 4.00603000e-01
-1.58363000 5.59400000e-01
-1.55363000 5.86633000e-01
-1.52363000 3.97513000e-01
-1.49363000 2.56534000e-01
-1.46363000 1.86702000e-01
-1.43363000 1.55454000e-01
-1.40363000 1.48745000e-01
-1.37363000 1.67529000e-01
-1.34363000 2.24174000e-01
-1.31363000 2.96111000e-01
-1.28363000 2.56040000e-01
-1.25363000 1.68250000e-01
-1.22363000 1.16558000e-01
-1.19363000 8.99436000e-02
-1.16363000 7.53370000e-02
-1.13363000 6.67365000e-02
-1.10363000 6.14799000e-02
-1.07363000 5.83314000e-02
-1.04363000 5.67334000e-02
-1.01363000 5.65498000e-02
-0.98362900 5.80019000e-02
-0.95362900 6.09913000e-02
-0.92362900 6.37691000e-02
-0.89362900 6.82955000e-02
-0.86362900 7.71429000e-02
-0.82067900 9.56038000e-02
-0.79067900 1.24603000e-01
-0.76067900 1.68555000e-01
-0.73067900 1.70728000e-01
-0.70067900 1.41368000e-01
-0.67067900 1.37409000e-01
-0.64067900 1.68745000e-01
-0.61067900 2.33102000e-01
-0.58067900 2.43814000e-01
-0.55067900 1.74020000e-01
-0.52067900 1.23517000e-01
-0.49067900 9.89687000e-02
-0.46067900 8.75222000e-02
-0.43067900 8.27321000e-02
-0.40067900 8.20999000e-02
-0.37067900 8.52248000e-02
-0.34067900 9.34855000e-02
-0.31067900 1.08071000e-01
-0.28067900 1.15558000e-01
-0.25067900 1.08002000e-01
-0.22067900 1.05411000e-01
-0.19067900 1.12510000e-01
-0.16067900 1.25922000e-01
-0.13067900 1.26937000e-01
-0.10067900 1.18635000e-01
-0.07067940 1.15798000e-01
-0.04067940 1.17691000e-01
-0.01067940 1.22287000e-01
0.01932060 1.28680000e-01
0.04932060 1.36545000e-01
0.07932060 1.45821000e-01
0.10932100 1.56585000e-01
0.13932100 1.69005000e-01
0.16932100 1.83334000e-01
0.19932100 1.99910000e-01
0.22932100 2.19176000e-01
0.25932100 2.41708000e-01
0.28932100 2.68259000e-01
0.31932100 2.99820000e-01
0.34932100 3.37721000e-01
0.37932100 3.83768000e-01
0.40932100 4.40466000e-01
0.43932100 5.11364000e-01
0.46932100 6.01624000e-01
0.49932100 7.18972000e-01
0.52932100 8.75378000e-01
0.55932100 1.09014000e+00
0.58932100 1.39587000e+00
0.61932100 1.85088000e+00
0.64932100 2.56656000e+00
0.67932100 3.77253000e+00
0.70932100 5.97914000e+00
0.73932100 1.03388000e+01
0.76932100 1.85208000e+01
