# E(MeV)  S_GAMTGAMT(Total=K0+2*K1) for Cu78_DDPCX
-15.51720000 2.16238000e-03
-15.48720000 2.16952300e-03
-15.45720000 2.17670200e-03
-15.42720000 2.18391300e-03
-15.39720000 2.19116000e-03
-15.36720000 2.19844100e-03
-15.33720000 2.20575800e-03
-15.30720000 2.21311000e-03
-15.27720000 2.22049700e-03
-15.24720000 2.22792200e-03
-15.21720000 2.23538200e-03
-15.18720000 2.24288000e-03
-15.15720000 2.25041400e-03
-15.12720000 2.25798700e-03
-15.09720000 2.26559600e-03
-15.06720000 2.27324300e-03
-15.03720000 2.28093000e-03
-15.00720000 2.28865300e-03
-14.97720000 2.29641700e-03
-14.94720000 2.30422000e-03
-14.91720000 2.31206200e-03
-14.88720000 2.31994400e-03
-14.85720000 2.32786700e-03
-14.82720000 2.33582900e-03
-14.79720000 2.34383300e-03
-14.76720000 2.35187700e-03
-14.73720000 2.35996400e-03
-14.70720000 2.36809100e-03
-14.67720000 2.37626300e-03
-14.64720000 2.38447500e-03
-14.61720000 2.39273100e-03
-14.58720000 2.40103100e-03
-14.55720000 2.40937400e-03
-14.52720000 2.41776000e-03
-14.49720000 2.42619000e-03
-14.46720000 2.43466700e-03
-14.43720000 2.44318700e-03
-14.40720000 2.45175300e-03
-14.37720000 2.46036500e-03
-14.34720000 2.46902300e-03
-14.31720000 2.47772700e-03
-14.28720000 2.48647900e-03
-14.25720000 2.49527700e-03
-14.22720000 2.50412200e-03
-14.19720000 2.51301700e-03
-14.16720000 2.52195900e-03
-14.13720000 2.53095000e-03
-14.10720000 2.53999200e-03
-14.07720000 2.54908100e-03
-14.04720000 2.55822100e-03
-14.01720000 2.56741300e-03
-13.98720000 2.57665400e-03
-13.95720000 2.58594700e-03
-13.92720000 2.59529100e-03
-13.88430000 2.60876000e-03
-13.85430000 2.61823200e-03
-13.82430000 2.62775700e-03
-13.79430000 2.63733700e-03
-13.76430000 2.64696900e-03
-13.73430000 2.65665600e-03
-13.70430000 2.66639700e-03
-13.67430000 2.67619600e-03
-13.64430000 2.68604800e-03
-13.61430000 2.69596000e-03
-13.58430000 2.70592500e-03
-13.55430000 2.71595000e-03
-13.52430000 2.72603100e-03
-13.49430000 2.73617200e-03
-13.46430000 2.74636900e-03
-13.43430000 2.75662700e-03
-13.40430000 2.76694500e-03
-13.37430000 2.77732400e-03
-13.34430000 2.78776300e-03
-13.31430000 2.79826200e-03
-13.28430000 2.80882400e-03
-13.25430000 2.81944800e-03
-13.22430000 2.83013600e-03
-13.19430000 2.84088600e-03
-13.16430000 2.85169900e-03
-13.13430000 2.86257900e-03
-13.10430000 2.87352400e-03
-13.07430000 2.88453300e-03
-13.04430000 2.89560900e-03
-13.01430000 2.90675200e-03
-12.98430000 2.91796000e-03
-12.95430000 2.92923800e-03
-12.92430000 2.94058600e-03
-12.89430000 2.95199800e-03
-12.86430000 2.96348600e-03
-12.83430000 2.97504000e-03
-12.80430000 2.98667200e-03
-12.77430000 2.99836800e-03
-12.74430000 3.01014400e-03
-12.71430000 3.02198600e-03
-12.68430000 3.03390000e-03
-12.65430000 3.04589000e-03
-12.62430000 3.05795000e-03
-12.59430000 3.07010000e-03
-12.56430000 3.08233000e-03
-12.53430000 3.09460000e-03
-12.50430000 3.10699000e-03
-12.47430000 3.11944000e-03
-12.44430000 3.13198000e-03
-12.41430000 3.14458000e-03
-12.38430000 3.15728000e-03
-12.35430000 3.17004000e-03
-12.32430000 3.18289000e-03
-12.29430000 3.19583000e-03
-12.25130000 3.21449000e-03
-12.22130000 3.22764000e-03
-12.19130000 3.24086000e-03
-12.16130000 3.25419000e-03
-12.13130000 3.26759000e-03
-12.10130000 3.28108000e-03
-12.07130000 3.29464000e-03
-12.04130000 3.30831000e-03
-12.01130000 3.32207000e-03
-11.98130000 3.33593000e-03
-11.95130000 3.34985000e-03
-11.92130000 3.36389000e-03
-11.89130000 3.37802000e-03
-11.86130000 3.39224000e-03
-11.83130000 3.40656000e-03
-11.80130000 3.42097000e-03
-11.77130000 3.43549000e-03
-11.74130000 3.45009000e-03
-11.71130000 3.46480000e-03
-11.68130000 3.47963000e-03
-11.65130000 3.49453000e-03
-11.62130000 3.50955000e-03
-11.59130000 3.52466000e-03
-11.56130000 3.53989000e-03
-11.53130000 3.55522000e-03
-11.50130000 3.57066000e-03
-11.47130000 3.58620000e-03
-11.44130000 3.60186000e-03
-11.41130000 3.61762000e-03
-11.38130000 3.63349000e-03
-11.35130000 3.64949000e-03
-11.32130000 3.66558000e-03
-11.29130000 3.68179000e-03
-11.26130000 3.69813000e-03
-11.23130000 3.71456000e-03
-11.20130000 3.73113000e-03
-11.17130000 3.74781000e-03
-11.14130000 3.76463000e-03
-11.11130000 3.78154000e-03
-11.08130000 3.79859000e-03
-11.05130000 3.81577000e-03
-11.02130000 3.83306000e-03
-10.99130000 3.85049000e-03
-10.96130000 3.86805000e-03
-10.93130000 3.88573000e-03
-10.90130000 3.90354000e-03
-10.87130000 3.92149000e-03
-10.84130000 3.93957000e-03
-10.81130000 3.95780000e-03
-10.78130000 3.97616000e-03
-10.75130000 3.99464000e-03
-10.72130000 4.01327000e-03
-10.69130000 4.03205000e-03
-10.66130000 4.05096000e-03
-10.61840000 4.07831000e-03
-10.58840000 4.09758000e-03
-10.55840000 4.11698000e-03
-10.52840000 4.13656000e-03
-10.49840000 4.15629000e-03
-10.46840000 4.17615000e-03
-10.43840000 4.19619000e-03
-10.40840000 4.21638000e-03
-10.37840000 4.23672000e-03
-10.34840000 4.25723000e-03
-10.31840000 4.27788000e-03
-10.28840000 4.29872000e-03
-10.25840000 4.31973000e-03
-10.22840000 4.34088000e-03
-10.19840000 4.36223000e-03
-10.16840000 4.38374000e-03
-10.13840000 4.40542000e-03
-10.10840000 4.42729000e-03
-10.07840000 4.44932000e-03
-10.04840000 4.47154000e-03
-10.01840000 4.49394000e-03
-9.98838000 4.51653000e-03
-9.95838000 4.53930000e-03
-9.92838000 4.56225000e-03
-9.89838000 4.58541000e-03
-9.86838000 4.60876000e-03
-9.83838000 4.63230000e-03
-9.80838000 4.65605000e-03
-9.77838000 4.67999000e-03
-9.74838000 4.70414000e-03
-9.71838000 4.72848000e-03
-9.68838000 4.75305000e-03
-9.65838000 4.77782000e-03
-9.62838000 4.80280000e-03
-9.59838000 4.82800000e-03
-9.56838000 4.85343000e-03
-9.53838000 4.87906000e-03
-9.50838000 4.90493000e-03
-9.47838000 4.93102000e-03
-9.44838000 4.95735000e-03
-9.41838000 4.98392000e-03
-9.38838000 5.01071000e-03
-9.35838000 5.03775000e-03
-9.32838000 5.06504000e-03
-9.29838000 5.09256000e-03
-9.26838000 5.12032000e-03
-9.23838000 5.14837000e-03
-9.20838000 5.17664000e-03
-9.17838000 5.20519000e-03
-9.14838000 5.23400000e-03
-9.11838000 5.26308000e-03
-9.08838000 5.29242000e-03
-9.05838000 5.32202000e-03
-9.02838000 5.35192000e-03
-8.98543000 5.39522000e-03
-8.95543000 5.42580000e-03
-8.92543000 5.45669000e-03
-8.89543000 5.48787000e-03
-8.86543000 5.51935000e-03
-8.83543000 5.55113000e-03
-8.80543000 5.58320000e-03
-8.77543000 5.61560000e-03
-8.74543000 5.64833000e-03
-8.71543000 5.68137000e-03
-8.68543000 5.71473000e-03
-8.65543000 5.74843000e-03
-8.62543000 5.78246000e-03
-8.59543000 5.81684000e-03
-8.56543000 5.85156000e-03
-8.53543000 5.88662000e-03
-8.50543000 5.92207000e-03
-8.47543000 5.95784000e-03
-8.44543000 5.99401000e-03
-8.41543000 6.03055000e-03
-8.38543000 6.06746000e-03
-8.35543000 6.10475000e-03
-8.32543000 6.14244000e-03
-8.29543000 6.18052000e-03
-8.26543000 6.21902000e-03
-8.23543000 6.25791000e-03
-8.20543000 6.29724000e-03
-8.17543000 6.33698000e-03
-8.14543000 6.37715000e-03
-8.11543000 6.41775000e-03
-8.08543000 6.45879000e-03
-8.05543000 6.50030000e-03
-8.02543000 6.54227000e-03
-7.99543000 6.58470000e-03
-7.96543000 6.62761000e-03
-7.93543000 6.67099000e-03
-7.90543000 6.71486000e-03
-7.87543000 6.75923000e-03
-7.84543000 6.80413000e-03
-7.81543000 6.84953000e-03
-7.78543000 6.89546000e-03
-7.75543000 6.94193000e-03
-7.72543000 6.98895000e-03
-7.69543000 7.03651000e-03
-7.66543000 7.08463000e-03
-7.63543000 7.13335000e-03
-7.60543000 7.18263000e-03
-7.57543000 7.23253000e-03
-7.54543000 7.28304000e-03
-7.51543000 7.33414000e-03
-7.48543000 7.38590000e-03
-7.45543000 7.43829000e-03
-7.42543000 7.49133000e-03
-7.39543000 7.54506000e-03
-7.35248000 7.62315000e-03
-7.32248000 7.67855000e-03
-7.29248000 7.73467000e-03
-7.26248000 7.79151000e-03
-7.23248000 7.84909000e-03
-7.20248000 7.90746000e-03
-7.17248000 7.96659000e-03
-7.14248000 8.02651000e-03
-7.11248000 8.08724000e-03
-7.08248000 8.14880000e-03
-7.05248000 8.21121000e-03
-7.02248000 8.27447000e-03
-6.99248000 8.33864000e-03
-6.96248000 8.40369000e-03
-6.93248000 8.46969000e-03
-6.90248000 8.53661000e-03
-6.87248000 8.60452000e-03
-6.84248000 8.67341000e-03
-6.81248000 8.74332000e-03
-6.78248000 8.81428000e-03
-6.75248000 8.88629000e-03
-6.72248000 8.95941000e-03
-6.69248000 9.03366000e-03
-6.66248000 9.10904000e-03
-6.63248000 9.18562000e-03
-6.60248000 9.26341000e-03
-6.57248000 9.34245000e-03
-6.54248000 9.42278000e-03
-6.51248000 9.50442000e-03
-6.48248000 9.58744000e-03
-6.45248000 9.67184000e-03
-6.42248000 9.75770000e-03
-6.39248000 9.84506000e-03
-6.36248000 9.93393000e-03
-6.33248000 1.00244300e-02
-6.30248000 1.01165600e-02
-6.27248000 1.02103800e-02
-6.24248000 1.03059800e-02
-6.21248000 1.04034100e-02
-6.18248000 1.05027300e-02
-6.15248000 1.06040700e-02
-6.12248000 1.07074300e-02
-6.09248000 1.08129700e-02
-6.06248000 1.09207800e-02
-6.03248000 1.10309300e-02
-6.00248000 1.11435700e-02
-5.97248000 1.12588200e-02
-5.94248000 1.13768500e-02
-5.91248000 1.14977900e-02
-5.88248000 1.16218300e-02
-5.85248000 1.17491900e-02
-5.82248000 1.18801100e-02
-5.79248000 1.20148300e-02
-5.76248000 1.21537000e-02
-5.71953000 1.23604500e-02
-5.68953000 1.25110400e-02
-5.65953000 1.26673200e-02
-5.62953000 1.28299800e-02
-5.59953000 1.29997900e-02
-5.56953000 1.31777900e-02
-5.53953000 1.33652500e-02
-5.50953000 1.35637100e-02
-5.47953000 1.37752600e-02
-5.44953000 1.40025600e-02
-5.41953000 1.42492000e-02
-5.38953000 1.45200200e-02
-5.35953000 1.48217800e-02
-5.32953000 1.51640900e-02
-5.29953000 1.55610400e-02
-5.26953000 1.60339700e-02
-5.23953000 1.66163700e-02
-5.20953000 1.73632200e-02
-5.17953000 1.83695200e-02
-5.14953000 1.98095400e-02
-5.11953000 2.20268400e-02
-5.08953000 2.57535000e-02
-5.05953000 3.26514600e-02
-5.02953000 4.61981800e-02
-4.99953000 6.73645000e-02
-4.96953000 7.10619000e-02
-4.93953000 5.08620000e-02
-4.90953000 3.58840000e-02
-4.87953000 2.84178800e-02
-4.84953000 2.46791800e-02
-4.81953000 2.26966000e-02
-4.78953000 2.16051500e-02
-4.75953000 2.10058800e-02
-4.72953000 2.07001400e-02
-4.69953000 2.05816800e-02
-4.66953000 2.05902500e-02
-4.63953000 2.06900600e-02
-4.60953000 2.08590500e-02
-4.57953000 2.10833400e-02
-4.54953000 2.13541900e-02
-4.51953000 2.16661800e-02
-4.48953000 2.20162300e-02
-4.45953000 2.24029400e-02
-4.42953000 2.28262500e-02
-4.39953000 2.32873100e-02
-4.36953000 2.37883900e-02
-4.33953000 2.43328900e-02
-4.30953000 2.49255600e-02
-4.27953000 2.55728200e-02
-4.24953000 2.62830800e-02
-4.21953000 2.70676700e-02
-4.18953000 2.79417600e-02
-4.15953000 2.89262000e-02
-4.12953000 3.00503600e-02
-4.08658000 3.19927000e-02
-4.05658000 3.36819000e-02
-4.02658000 3.57822000e-02
-3.99658000 3.85087000e-02
-3.96658000 4.22522000e-02
-3.93658000 4.77821000e-02
-3.90658000 5.67402000e-02
-3.87658000 7.28470000e-02
-3.84658000 1.03544300e-01
-3.81658000 1.47041100e-01
-3.78658000 1.45938800e-01
-3.75658000 1.07352200e-01
-3.72658000 8.45113000e-02
-3.69658000 7.69937000e-02
-3.66658000 7.89333000e-02
-3.63658000 8.37241000e-02
-3.60658000 8.27369000e-02
-3.57658000 8.31768000e-02
-3.54658000 8.86455000e-02
-3.51658000 9.88833000e-02
-3.48658000 1.14659900e-01
-3.45658000 1.38393200e-01
-3.42658000 1.75114600e-01
-3.39658000 2.35176600e-01
-3.36658000 3.41137600e-01
-3.33658000 5.43850200e-01
-3.30658000 9.31173400e-01
-3.27658000 1.37849000e+00
-3.24658000 1.32769300e+00
-3.21658000 1.14613800e+00
-3.18658000 8.54200000e-01
-3.15658000 5.25450000e-01
-3.12658000 3.37001000e-01
-3.09658000 2.38712200e-01
-3.06658000 1.84264900e-01
-3.03658000 1.52093800e-01
-3.00658000 1.32291200e-01
-2.97658000 1.20003500e-01
-2.94658000 1.12725800e-01
-2.91658000 1.09173000e-01
-2.88658000 1.08813900e-01
-2.85658000 1.11757600e-01
-2.82658000 1.18962700e-01
-2.79658000 1.33011800e-01
-2.76658000 1.60001000e-01
-2.73658000 2.09750700e-01
-2.70658000 2.60708200e-01
-2.67658000 2.43378100e-01
-2.64658000 2.16984200e-01
-2.61658000 2.23860600e-01
-2.58658000 2.66905200e-01
-2.55658000 3.62101600e-01
-2.52658000 5.15985000e-01
-2.49658000 6.14867000e-01
-2.45363000 7.82777000e-01
-2.42363000 9.12701000e-01
-2.39363000 8.19629000e-01
-2.36363000 6.92333000e-01
-2.33363000 7.08292000e-01
-2.30363000 7.07553000e-01
-2.27363000 5.67276000e-01
-2.24363000 4.36604000e-01
-2.21363000 3.60355000e-01
-2.18363000 3.34398000e-01
-2.15363000 3.41570000e-01
-2.12363000 3.76549000e-01
-2.09363000 4.45848000e-01
-2.06363000 5.71843000e-01
-2.03363000 8.06184000e-01
-2.00363000 1.21551400e+00
-1.97363000 1.67363000e+00
-1.94363000 1.76576400e+00
-1.91363000 1.70171200e+00
-1.88363000 2.10907600e+00
-1.85363000 2.87877600e+00
-1.82363000 2.67156400e+00
-1.79363000 1.83956400e+00
-1.76363000 1.40030200e+00
-1.73363000 1.26303000e+00
-1.70363000 1.31155200e+00
-1.67363000 1.57262700e+00
-1.64363000 2.14580200e+00
-1.61363000 3.22360300e+00
-1.58363000 4.85820000e+00
-1.55363000 7.39717300e+00
-1.52363000 1.10926330e+01
-1.49363000 1.07316340e+01
-1.46363000 6.50576200e+00
-1.43363000 3.72785400e+00
-1.40363000 2.34362500e+00
-1.37363000 1.64340900e+00
-1.34363000 1.29479000e+00
-1.31363000 1.12431900e+00
-1.28363000 9.35598000e-01
-1.25363000 7.60518000e-01
-1.22363000 6.70156000e-01
-1.19363000 6.56251600e-01
-1.16363000 7.29775000e-01
-1.13363000 9.49154500e-01
-1.10363000 1.39776390e+00
-1.07363000 1.70928140e+00
-1.04363000 1.27667740e+00
-1.01363000 8.17141800e-01
-0.98362900 5.76549900e-01
-0.95362900 4.57961300e-01
-0.92362900 3.93341100e-01
-0.89362900 3.57589500e-01
-0.86362900 3.46658900e-01
-0.82067900 3.60989800e-01
-0.79067900 3.86181000e-01
-0.76067900 4.29333000e-01
-0.73067900 4.45360000e-01
-0.70067900 4.50212000e-01
-0.67067900 5.13697000e-01
-0.64067900 6.53983000e-01
-0.61067900 7.93960000e-01
-0.58067900 8.50916000e-01
-0.55067900 8.98590000e-01
-0.52067900 9.39981000e-01
-0.49067900 1.06443470e+00
-0.46067900 1.46284420e+00
-0.43067900 2.05234210e+00
-0.40067900 2.20191990e+00
-0.37067900 2.06341480e+00
-0.34067900 1.87510150e+00
-0.31067900 1.75953700e+00
-0.28067900 1.57604600e+00
-0.25067900 1.64400400e+00
-0.22067900 2.16705100e+00
-0.19067900 3.42751000e+00
-0.16067900 5.28296200e+00
-0.13067900 5.05143700e+00
-0.10067900 3.12613500e+00
-0.07067940 1.89779600e+00
-0.04067940 1.29063700e+00
-0.01067940 9.82927000e-01
0.01932060 8.21518000e-01
0.04932060 7.40261000e-01
0.07932060 7.10175000e-01
0.10932100 7.19823000e-01
0.13932100 7.68421000e-01
0.16932100 8.65194000e-01
0.19932100 1.03436000e+00
0.22932100 1.33020000e+00
0.25932100 1.87637400e+00
0.28932100 2.95263900e+00
0.31932100 4.94210000e+00
0.34932100 6.49236100e+00
0.37932100 4.90406800e+00
0.40932100 3.05066600e+00
0.43932100 2.11106000e+00
0.46932100 1.69555800e+00
0.49932100 1.54336000e+00
0.52932100 1.54802800e+00
0.55932100 1.67621200e+00
0.58932100 1.93597200e+00
0.61932100 2.37438400e+00
0.64932100 3.09933000e+00
0.67932100 4.34350800e+00
0.70932100 6.62957800e+00
0.73932100 1.11408260e+01
0.76932100 1.96192300e+01
