# E(MeV)  S_NSDRNSDR(K=0) for Cu78_DDPCX
-15.51720000 -7.39243000e-02
-15.48720000 -7.83233000e-02
-15.45720000 -8.54938000e-02
-15.42720000 -9.71940000e-02
-15.39720000 -1.16908000e-01
-15.36720000 -1.52084000e-01
-15.33720000 -2.19663000e-01
-15.30720000 -3.55091000e-01
-15.27720000 -5.66786000e-01
-15.24720000 -5.90854000e-01
-15.21720000 -3.81925000e-01
-15.18720000 -2.34667000e-01
-15.15720000 -1.61259000e-01
-15.12720000 -1.24002000e-01
-15.09720000 -1.04021000e-01
-15.06720000 -9.31030000e-02
-15.03720000 -8.75248000e-02
-15.00720000 -8.55297000e-02
-14.97720000 -8.63174000e-02
-14.94720000 -8.96291000e-02
-14.91720000 -9.55927000e-02
-14.88720000 -1.04706000e-01
-14.85720000 -1.17931000e-01
-14.82720000 -1.36942000e-01
-14.79720000 -1.64622000e-01
-14.76720000 -2.06119000e-01
-14.73720000 -2.71125000e-01
-14.70720000 -3.79222000e-01
-14.67720000 -5.73114000e-01
-14.64720000 -9.50291000e-01
-14.61720000 -1.69312000e+00
-14.58720000 -2.62789000e+00
-14.55720000 -2.31776000e+00
-14.52720000 -1.34854000e+00
-14.49720000 -7.70067000e-01
-14.46720000 -4.80421000e-01
-14.43720000 -3.26553000e-01
-14.40720000 -2.37636000e-01
-14.37720000 -1.82367000e-01
-14.34720000 -1.45945000e-01
-14.31720000 -1.20806000e-01
-14.28720000 -1.02806000e-01
-14.25720000 -8.95353000e-02
-14.22720000 -7.95246000e-02
-14.19720000 -7.18376000e-02
-14.16720000 -6.58578000e-02
-14.13720000 -6.11670000e-02
-14.10720000 -5.74750000e-02
-14.07720000 -5.45763000e-02
-14.04720000 -5.23234000e-02
-14.01720000 -5.06100000e-02
-13.98720000 -4.93590000e-02
-13.95720000 -4.85157000e-02
-13.92720000 -4.80423000e-02
-13.88430000 -4.79629000e-02
-13.85430000 -4.83112000e-02
-13.82430000 -4.89928000e-02
-13.79430000 -5.00195000e-02
-13.76430000 -5.14134000e-02
-13.73430000 -5.32076000e-02
-13.70430000 -5.54479000e-02
-13.67430000 -5.81959000e-02
-13.64430000 -6.15322000e-02
-13.61430000 -6.55619000e-02
-13.58430000 -7.04223000e-02
-13.55430000 -7.62935000e-02
-13.52430000 -8.34140000e-02
-13.49430000 -9.21036000e-02
-13.46430000 -1.02798000e-01
-13.43430000 -1.16099000e-01
-13.40430000 -1.32861000e-01
-13.37430000 -1.54320000e-01
-13.34430000 -1.82320000e-01
-13.31430000 -2.19703000e-01
-13.28430000 -2.71018000e-01
-13.25430000 -3.43896000e-01
-13.22430000 -4.51838000e-01
-13.19430000 -6.20336000e-01
-13.16430000 -9.01229000e-01
-13.13430000 -1.40841000e+00
-13.10430000 -2.40134000e+00
-13.07430000 -4.32834000e+00
-13.04430000 -6.44567000e+00
-13.01430000 -5.28291000e+00
-12.98430000 -3.00030000e+00
-12.95430000 -1.70538000e+00
-12.92430000 -1.05574000e+00
-12.89430000 -7.07220000e-01
-12.86430000 -5.03881000e-01
-12.83430000 -3.76423000e-01
-12.80430000 -2.91774000e-01
-12.77430000 -2.32885000e-01
-12.74430000 -1.90345000e-01
-12.71430000 -1.58646000e-01
-12.68430000 -1.34405000e-01
-12.65430000 -1.15457000e-01
-12.62430000 -1.00365000e-01
-12.59430000 -8.81468000e-02
-12.56430000 -7.81139000e-02
-12.53430000 -6.97714000e-02
-12.50430000 -6.27569000e-02
-12.47430000 -5.67998000e-02
-12.44430000 -5.16953000e-02
-12.41430000 -4.72857000e-02
-12.38430000 -4.34481000e-02
-12.35430000 -4.00858000e-02
-12.32430000 -3.71215000e-02
-12.29430000 -3.44933000e-02
-12.25130000 -3.12171000e-02
-12.22130000 -2.92134000e-02
-12.19130000 -2.74070000e-02
-12.16130000 -2.57719000e-02
-12.13130000 -2.42861000e-02
-12.10130000 -2.29309000e-02
-12.07130000 -2.16908000e-02
-12.04130000 -2.05523000e-02
-12.01130000 -1.95038000e-02
-11.98130000 -1.85355000e-02
-11.95130000 -1.76388000e-02
-11.92130000 -1.68062000e-02
-11.89130000 -1.60313000e-02
-11.86130000 -1.53084000e-02
-11.83130000 -1.46325000e-02
-11.80130000 -1.39992000e-02
-11.77130000 -1.34046000e-02
-11.74130000 -1.28452000e-02
-11.71130000 -1.23180000e-02
-11.68130000 -1.18202000e-02
-11.65130000 -1.13494000e-02
-11.62130000 -1.09034000e-02
-11.59130000 -1.04803000e-02
-11.56130000 -1.00782000e-02
-11.53130000 -9.69560000e-03
-11.50130000 -9.33098000e-03
-11.47130000 -8.98304000e-03
-11.44130000 -8.65060000e-03
-11.41130000 -8.33257000e-03
-11.38130000 -8.02796000e-03
-11.35130000 -7.73586000e-03
-11.32130000 -7.45545000e-03
-11.29130000 -7.18597000e-03
-11.26130000 -6.92671000e-03
-11.23130000 -6.67705000e-03
-11.20130000 -6.43640000e-03
-11.17130000 -6.20420000e-03
-11.14130000 -5.97996000e-03
-11.11130000 -5.76322000e-03
-11.08130000 -5.55354000e-03
-11.05130000 -5.35053000e-03
-11.02130000 -5.15382000e-03
-10.99130000 -4.96306000e-03
-10.96130000 -4.77795000e-03
-10.93130000 -4.59817000e-03
-10.90130000 -4.42346000e-03
-10.87130000 -4.25355000e-03
-10.84130000 -4.08820000e-03
-10.81130000 -3.92719000e-03
-10.78130000 -3.77031000e-03
-10.75130000 -3.61735000e-03
-10.72130000 -3.46813000e-03
-10.69130000 -3.32249000e-03
-10.66130000 -3.18024000e-03
-10.61840000 -2.98222000e-03
-10.58840000 -2.84763000e-03
-10.55840000 -2.71595000e-03
-10.52840000 -2.58705000e-03
-10.49840000 -2.46082000e-03
-10.46840000 -2.33714000e-03
-10.43840000 -2.21591000e-03
-10.40840000 -2.09704000e-03
-10.37840000 -1.98041000e-03
-10.34840000 -1.86595000e-03
-10.31840000 -1.75356000e-03
-10.28840000 -1.64318000e-03
-10.25840000 -1.53471000e-03
-10.22840000 -1.42809000e-03
-10.19840000 -1.32325000e-03
-10.16840000 -1.22012000e-03
-10.13840000 -1.11865000e-03
-10.10840000 -1.01876000e-03
-10.07840000 -9.20404000e-04
-10.04840000 -8.23528000e-04
-10.01840000 -7.28078000e-04
-9.98838000 -6.34006000e-04
-9.95838000 -5.41264000e-04
-9.92838000 -4.49806000e-04
-9.89838000 -3.59591000e-04
-9.86838000 -2.70576000e-04
-9.83838000 -1.82722000e-04
-9.80838000 -9.59912000e-05
-9.77838000 -1.03472000e-05
-9.74838000 7.42448000e-05
-9.71838000 1.57818000e-04
-9.68838000 2.40405000e-04
-9.65838000 3.22036000e-04
-9.62838000 4.02740000e-04
-9.59838000 4.82546000e-04
-9.56838000 5.61482000e-04
-9.53838000 6.39573000e-04
-9.50838000 7.16845000e-04
-9.47838000 7.93322000e-04
-9.44838000 8.69028000e-04
-9.41838000 9.43984000e-04
-9.38838000 1.01821000e-03
-9.35838000 1.09174000e-03
-9.32838000 1.16457000e-03
-9.29838000 1.23675000e-03
-9.26838000 1.30827000e-03
-9.23838000 1.37917000e-03
-9.20838000 1.44945000e-03
-9.17838000 1.51914000e-03
-9.14838000 1.58825000e-03
-9.11838000 1.65680000e-03
-9.08838000 1.72480000e-03
-9.05838000 1.79228000e-03
-9.02838000 1.85923000e-03
-8.98543000 1.95422000e-03
-8.95543000 2.01998000e-03
-8.92543000 2.08526000e-03
-8.89543000 2.15010000e-03
-8.86543000 2.21448000e-03
-8.83543000 2.27844000e-03
-8.80543000 2.34197000e-03
-8.77543000 2.40510000e-03
-8.74543000 2.46782000e-03
-8.71543000 2.53017000e-03
-8.68543000 2.59213000e-03
-8.65543000 2.65373000e-03
-8.62543000 2.71497000e-03
-8.59543000 2.77587000e-03
-8.56543000 2.83643000e-03
-8.53543000 2.89667000e-03
-8.50543000 2.95659000e-03
-8.47543000 3.01620000e-03
-8.44543000 3.07551000e-03
-8.41543000 3.13453000e-03
-8.38543000 3.19327000e-03
-8.35543000 3.25174000e-03
-8.32543000 3.30995000e-03
-8.29543000 3.36790000e-03
-8.26543000 3.42561000e-03
-8.23543000 3.48307000e-03
-8.20543000 3.54031000e-03
-8.17543000 3.59733000e-03
-8.14543000 3.65413000e-03
-8.11543000 3.71073000e-03
-8.08543000 3.76713000e-03
-8.05543000 3.82334000e-03
-8.02543000 3.87937000e-03
-7.99543000 3.93523000e-03
-7.96543000 3.99093000e-03
-7.93543000 4.04647000e-03
-7.90543000 4.10187000e-03
-7.87543000 4.15714000e-03
-7.84543000 4.21228000e-03
-7.81543000 4.26730000e-03
-7.78543000 4.32222000e-03
-7.75543000 4.37704000e-03
-7.72543000 4.43179000e-03
-7.69543000 4.48646000e-03
-7.66543000 4.54107000e-03
-7.63543000 4.59564000e-03
-7.60543000 4.65019000e-03
-7.57543000 4.70472000e-03
-7.54543000 4.75927000e-03
-7.51543000 4.81384000e-03
-7.48543000 4.86847000e-03
-7.45543000 4.92318000e-03
-7.42543000 4.97800000e-03
-7.39543000 5.03298000e-03
-7.35248000 5.11205000e-03
-7.32248000 5.16761000e-03
-7.29248000 5.22354000e-03
-7.26248000 5.27993000e-03
-7.23248000 5.33694000e-03
-7.20248000 5.39474000e-03
-7.17248000 5.45361000e-03
-7.14248000 5.51397000e-03
-7.11248000 5.57646000e-03
-7.08248000 5.64214000e-03
-7.05248000 5.71287000e-03
-7.02248000 5.79217000e-03
-6.99248000 5.88722000e-03
-6.96248000 6.01393000e-03
-6.93248000 6.20805000e-03
-6.90248000 6.52059000e-03
-6.87248000 6.78880000e-03
-6.84248000 6.64776000e-03
-6.81248000 6.45963000e-03
-6.78248000 6.39107000e-03
-6.75248000 6.39189000e-03
-6.72248000 6.42678000e-03
-6.69248000 6.48055000e-03
-6.66248000 6.54697000e-03
-6.63248000 6.62381000e-03
-6.60248000 6.71094000e-03
-6.57248000 6.80967000e-03
-6.54248000 6.92273000e-03
-6.51248000 7.05462000e-03
-6.48248000 7.21246000e-03
-6.45248000 7.40763000e-03
-6.42248000 7.65892000e-03
-6.39248000 7.99880000e-03
-6.36248000 8.48676000e-03
-6.33248000 9.23956000e-03
-6.30248000 1.05051000e-02
-6.27248000 1.28451000e-02
-6.24248000 1.74605000e-02
-6.21248000 2.49676000e-02
-6.18248000 2.68307000e-02
-6.15248000 1.96353000e-02
-6.12248000 1.42007000e-02
-6.09248000 1.14877000e-02
-6.06248000 1.01238000e-02
-6.03248000 9.39422000e-03
-6.00248000 8.98638000e-03
-5.97248000 8.75671000e-03
-5.94248000 8.63429000e-03
-5.91248000 8.58181000e-03
-5.88248000 8.57883000e-03
-5.85248000 8.61406000e-03
-5.82248000 8.68174000e-03
-5.79248000 8.77976000e-03
-5.76248000 8.90890000e-03
-5.71953000 9.15563000e-03
-5.68953000 9.38152000e-03
-5.65953000 9.66560000e-03
-5.62953000 1.00278000e-02
-5.59953000 1.04990000e-02
-5.56953000 1.11290000e-02
-5.53953000 1.20000000e-02
-5.50953000 1.32561000e-02
-5.47953000 1.51640000e-02
-5.44953000 1.82552000e-02
-5.41953000 2.36734000e-02
-5.38953000 3.40259000e-02
-5.35953000 5.45739000e-02
-5.32953000 8.43653000e-02
-5.29953000 8.27308000e-02
-5.26953000 5.32334000e-02
-5.23953000 3.41076000e-02
-5.20953000 2.42126000e-02
-5.17953000 1.87822000e-02
-5.14953000 1.57037000e-02
-5.11953000 1.38509000e-02
-5.08953000 1.26674000e-02
-5.05953000 1.18752000e-02
-5.02953000 1.13257000e-02
-4.99953000 1.09343000e-02
-4.96953000 1.06503000e-02
-4.93953000 1.04417000e-02
-4.90953000 1.02876000e-02
-4.87953000 1.01740000e-02
-4.84953000 1.00912000e-02
-4.81953000 1.00322000e-02
-4.78953000 9.99219000e-03
-4.75953000 9.96753000e-03
-4.72953000 9.95568000e-03
-4.69953000 9.95493000e-03
-4.66953000 9.96424000e-03
-4.63953000 9.98333000e-03
-4.60953000 1.00129000e-02
-4.57953000 1.00549000e-02
-4.54953000 1.01141000e-02
-4.51953000 1.02003000e-02
-4.48953000 1.03351000e-02
-4.45953000 1.05680000e-02
-4.42953000 1.10066000e-02
-4.39953000 1.17256000e-02
-4.36953000 1.19902000e-02
-4.33953000 1.13660000e-02
-4.30953000 1.08733000e-02
-4.27953000 1.06424000e-02
-4.24953000 1.05434000e-02
-4.21953000 1.05066000e-02
-4.18953000 1.05013000e-02
-4.15953000 1.05136000e-02
-4.12953000 1.05362000e-02
-4.08658000 1.05797000e-02
-4.05658000 1.06151000e-02
-4.02658000 1.06533000e-02
-3.99658000 1.06936000e-02
-3.96658000 1.07355000e-02
-3.93658000 1.07788000e-02
-3.90658000 1.08232000e-02
-3.87658000 1.08684000e-02
-3.84658000 1.09145000e-02
-3.81658000 1.09613000e-02
-3.78658000 1.10086000e-02
-3.75658000 1.10565000e-02
-3.72658000 1.11049000e-02
-3.69658000 1.11538000e-02
-3.66658000 1.12031000e-02
-3.63658000 1.12528000e-02
-3.60658000 1.13028000e-02
-3.57658000 1.13533000e-02
-3.54658000 1.14040000e-02
-3.51658000 1.14552000e-02
-3.48658000 1.15066000e-02
-3.45658000 1.15583000e-02
-3.42658000 1.16104000e-02
-3.39658000 1.16628000e-02
-3.36658000 1.17155000e-02
-3.33658000 1.17686000e-02
-3.30658000 1.18220000e-02
-3.27658000 1.18758000e-02
-3.24658000 1.19300000e-02
-3.21658000 1.19846000e-02
-3.18658000 1.20398000e-02
-3.15658000 1.20956000e-02
-3.12658000 1.21521000e-02
-3.09658000 1.22096000e-02
-3.06658000 1.22683000e-02
-3.03658000 1.23290000e-02
-3.00658000 1.23923000e-02
-2.97658000 1.24600000e-02
-2.94658000 1.25353000e-02
-2.91658000 1.26247000e-02
-2.88658000 1.27427000e-02
-2.85658000 1.29221000e-02
-2.82658000 1.32059000e-02
-2.79658000 1.34278000e-02
-2.76658000 1.32900000e-02
-2.73658000 1.31302000e-02
-2.70658000 1.30730000e-02
-2.67658000 1.30723000e-02
-2.64658000 1.30981000e-02
-2.61658000 1.31369000e-02
-2.58658000 1.31829000e-02
-2.55658000 1.32330000e-02
-2.52658000 1.32857000e-02
-2.49658000 1.33401000e-02
-2.45363000 1.34202000e-02
-2.42363000 1.34772000e-02
-2.39363000 1.35348000e-02
-2.36363000 1.35930000e-02
-2.33363000 1.36517000e-02
-2.30363000 1.37108000e-02
-2.27363000 1.37703000e-02
-2.24363000 1.38301000e-02
-2.21363000 1.38902000e-02
-2.18363000 1.39507000e-02
-2.15363000 1.40114000e-02
-2.12363000 1.40725000e-02
-2.09363000 1.41338000e-02
-2.06363000 1.41954000e-02
-2.03363000 1.42572000e-02
-2.00363000 1.43193000e-02
-1.97363000 1.43817000e-02
-1.94363000 1.44444000e-02
-1.91363000 1.45073000e-02
-1.88363000 1.45705000e-02
-1.85363000 1.46340000e-02
-1.82363000 1.46977000e-02
-1.79363000 1.47617000e-02
-1.76363000 1.48259000e-02
-1.73363000 1.48904000e-02
-1.70363000 1.49552000e-02
-1.67363000 1.50203000e-02
-1.64363000 1.50856000e-02
-1.61363000 1.51512000e-02
-1.58363000 1.52171000e-02
-1.55363000 1.52832000e-02
-1.52363000 1.53497000e-02
-1.49363000 1.54164000e-02
-1.46363000 1.54834000e-02
-1.43363000 1.55507000e-02
-1.40363000 1.56182000e-02
-1.37363000 1.56861000e-02
-1.34363000 1.57543000e-02
-1.31363000 1.58227000e-02
-1.28363000 1.58915000e-02
-1.25363000 1.59606000e-02
-1.22363000 1.60299000e-02
-1.19363000 1.60996000e-02
-1.16363000 1.61696000e-02
-1.13363000 1.62399000e-02
-1.10363000 1.63105000e-02
-1.07363000 1.63814000e-02
-1.04363000 1.64527000e-02
-1.01363000 1.65242000e-02
-0.98362900 1.65961000e-02
-0.95362900 1.66684000e-02
-0.92362900 1.67410000e-02
-0.89362900 1.68139000e-02
-0.86362900 1.68871000e-02
-0.82067900 1.69926000e-02
-0.79067900 1.70667000e-02
-0.76067900 1.71412000e-02
-0.73067900 1.72160000e-02
-0.70067900 1.72912000e-02
-0.67067900 1.73668000e-02
-0.64067900 1.74428000e-02
-0.61067900 1.75191000e-02
-0.58067900 1.75958000e-02
-0.55067900 1.76729000e-02
-0.52067900 1.77504000e-02
-0.49067900 1.78283000e-02
-0.46067900 1.79066000e-02
-0.43067900 1.79853000e-02
-0.40067900 1.80645000e-02
-0.37067900 1.81440000e-02
-0.34067900 1.82240000e-02
-0.31067900 1.83045000e-02
-0.28067900 1.83854000e-02
-0.25067900 1.84668000e-02
-0.22067900 1.85486000e-02
-0.19067900 1.86310000e-02
-0.16067900 1.87138000e-02
-0.13067900 1.87972000e-02
-0.10067900 1.88811000e-02
-0.07067940 1.89655000e-02
-0.04067940 1.90505000e-02
-0.01067940 1.91361000e-02
0.01932060 1.92224000e-02
0.04932060 1.93093000e-02
0.07932060 1.93968000e-02
0.10932100 1.94851000e-02
0.13932100 1.95742000e-02
0.16932100 1.96641000e-02
0.19932100 1.97550000e-02
0.22932100 1.98468000e-02
0.25932100 1.99398000e-02
0.28932100 2.00340000e-02
0.31932100 2.01297000e-02
0.34932100 2.02270000e-02
0.37932100 2.03263000e-02
0.40932100 2.04278000e-02
0.43932100 2.05323000e-02
0.46932100 2.06403000e-02
0.49932100 2.07529000e-02
0.52932100 2.08714000e-02
0.55932100 2.09982000e-02
0.58932100 2.11364000e-02
0.61932100 2.12913000e-02
0.64932100 2.14716000e-02
0.67932100 2.16926000e-02
0.70932100 2.19830000e-02
0.73932100 2.24006000e-02
0.76932100 2.30711000e-02
