# E(MeV)  S_GAMTGAMT(K=1) for Db319_DDPCX
-10.52370000 3.37026000e-03
-10.49370000 3.38044000e-03
-10.46370000 3.39195000e-03
-10.43370000 3.40436000e-03
-10.40370000 3.41697000e-03
-10.37370000 3.42969000e-03
-10.34370000 3.44249000e-03
-10.31370000 3.45538000e-03
-10.28370000 3.46834000e-03
-10.25370000 3.48138000e-03
-10.22370000 3.49449000e-03
-10.19370000 3.50769000e-03
-10.16370000 3.52096000e-03
-10.13370000 3.53431000e-03
-10.10370000 3.54775000e-03
-10.07370000 3.56128000e-03
-10.04370000 3.57490000e-03
-10.01370000 3.58861000e-03
-9.98371000 3.60243000e-03
-9.95371000 3.61635000e-03
-9.92371000 3.63038000e-03
-9.89371000 3.64454000e-03
-9.86371000 3.65882000e-03
-9.83371000 3.67324000e-03
-9.80371000 3.68782000e-03
-9.77371000 3.70258000e-03
-9.74371000 3.71753000e-03
-9.71371000 3.73273000e-03
-9.68371000 3.74823000e-03
-9.65371000 3.76411000e-03
-9.62371000 3.78055000e-03
-9.59371000 3.79784000e-03
-9.56371000 3.81656000e-03
-9.53371000 3.83799000e-03
-9.50371000 3.86502000e-03
-9.47371000 3.90277000e-03
-9.44371000 3.94394000e-03
-9.39011000 3.94055000e-03
-9.36011000 3.94034000e-03
-9.33011000 3.94921000e-03
-9.30011000 3.96262000e-03
-9.27011000 3.97845000e-03
-9.24011000 3.99580000e-03
-9.21011000 4.01430000e-03
-9.18011000 4.03382000e-03
-9.15011000 4.05437000e-03
-9.12011000 4.07603000e-03
-9.09011000 4.09897000e-03
-9.06011000 4.12345000e-03
-9.03011000 4.14985000e-03
-9.00011000 4.17869000e-03
-8.97011000 4.21075000e-03
-8.94011000 4.24716000e-03
-8.91011000 4.28968000e-03
-8.88011000 4.34112000e-03
-8.85011000 4.40617000e-03
-8.82011000 4.49311000e-03
-8.79011000 4.61762000e-03
-8.76011000 4.81165000e-03
-8.73011000 5.14562000e-03
-8.70011000 5.77905000e-03
-8.67011000 6.96633000e-03
-8.64011000 8.12495000e-03
-8.61011000 7.36599000e-03
-8.58011000 6.15863000e-03
-8.55011000 5.53452000e-03
-8.52011000 5.31369000e-03
-8.49011000 5.31265000e-03
-8.46011000 5.27304000e-03
-8.43011000 5.17530000e-03
-8.40011000 5.21813000e-03
-8.37011000 5.40364000e-03
-8.34011000 5.45971000e-03
-8.31011000 5.34820000e-03
-8.25651000 5.53344000e-03
-8.22651000 5.91738000e-03
-8.19651000 6.10550000e-03
-8.16651000 5.88181000e-03
-8.13651000 5.78119000e-03
-8.10651000 5.89593000e-03
-8.07651000 6.21819000e-03
-8.04651000 6.83541000e-03
-8.01651000 7.94543000e-03
-7.98651000 9.48664000e-03
-7.95651000 1.12041000e-02
-7.92651000 1.46477000e-02
-7.89651000 1.91825000e-02
-7.86651000 1.98290000e-02
-7.83651000 1.55844000e-02
-7.80651000 1.10732000e-02
-7.77651000 8.59082000e-03
-7.74651000 7.33366000e-03
-7.71651000 6.66598000e-03
-7.68651000 6.30496000e-03
-7.65651000 6.13210000e-03
-7.62651000 6.05945000e-03
-7.59651000 5.95948000e-03
-7.56651000 5.88911000e-03
-7.53651000 5.90616000e-03
-7.50651000 6.02139000e-03
-7.47651000 6.27352000e-03
-7.44651000 6.71059000e-03
-7.41651000 7.00771000e-03
-7.38651000 6.94941000e-03
-7.35651000 7.15414000e-03
-7.32651000 7.92526000e-03
-7.29651000 9.49664000e-03
-7.26651000 1.08341000e-02
-7.23651000 1.01465000e-02
-7.20651000 9.48087000e-03
-7.17651000 9.00454000e-03
-7.12292000 8.61689000e-03
-7.09292000 8.78551000e-03
-7.06292000 9.80817000e-03
-7.03292000 1.22440000e-02
-7.00292000 1.61472000e-02
-6.97292000 1.79418000e-02
-6.94292000 1.79686000e-02
-6.91292000 1.58782000e-02
-6.88292000 1.20514000e-02
-6.85292000 9.76265000e-03
-6.82292000 8.73368000e-03
-6.79292000 8.41555000e-03
-6.76292000 8.64383000e-03
-6.73292000 9.53515000e-03
-6.70292000 1.12040000e-02
-6.67292000 1.34577000e-02
-6.64292000 1.57178000e-02
-6.61292000 1.42679000e-02
-6.58292000 1.11058000e-02
-6.55292000 9.28393000e-03
-6.52292000 8.37604000e-03
-6.49292000 7.82467000e-03
-6.46292000 7.54525000e-03
-6.43292000 7.45825000e-03
-6.40292000 7.53134000e-03
-6.37292000 7.80589000e-03
-6.34292000 8.39718000e-03
-6.31292000 9.49072000e-03
-6.28292000 1.07048000e-02
-6.25292000 1.05161000e-02
-6.22292000 1.01190000e-02
-6.19292000 1.08361000e-02
-6.16292000 1.24572000e-02
-6.13292000 1.27661000e-02
-6.10292000 1.24469000e-02
-6.07292000 1.39483000e-02
-6.04292000 1.62227000e-02
-5.98932000 1.24505000e-02
-5.95932000 1.10068000e-02
-5.92932000 1.07878000e-02
-5.89932000 1.11832000e-02
-5.86932000 1.21227000e-02
-5.83932000 1.24301000e-02
-5.80932000 1.27716000e-02
-5.77932000 1.36007000e-02
-5.74932000 1.33903000e-02
-5.71932000 1.23222000e-02
-5.68932000 1.17206000e-02
-5.65932000 1.11638000e-02
-5.62932000 1.07342000e-02
-5.59932000 1.09336000e-02
-5.56932000 1.14496000e-02
-5.53932000 1.16611000e-02
-5.50932000 1.21085000e-02
-5.47932000 1.32974000e-02
-5.44932000 1.54576000e-02
-5.41932000 1.85790000e-02
-5.38932000 2.22178000e-02
-5.35932000 2.63441000e-02
-5.32932000 3.11313000e-02
-5.29932000 3.54662000e-02
-5.26932000 4.61011000e-02
-5.23932000 5.48981000e-02
-5.20932000 4.86094000e-02
-5.17932000 3.68286000e-02
-5.14932000 2.87329000e-02
-5.11932000 2.34846000e-02
-5.08932000 1.98190000e-02
-5.05932000 1.70500000e-02
-5.02932000 1.55742000e-02
-4.99932000 1.54399000e-02
-4.96932000 1.67343000e-02
-4.93932000 1.89132000e-02
-4.90932000 1.92322000e-02
-4.85572000 2.04948000e-02
-4.82572000 2.25300000e-02
-4.79572000 2.57651000e-02
-4.76572000 3.42299000e-02
-4.73572000 4.94037000e-02
-4.70572000 6.03948000e-02
-4.67572000 5.53948000e-02
-4.64572000 4.37560000e-02
-4.61572000 3.52812000e-02
-4.58572000 2.89891000e-02
-4.55572000 2.37874000e-02
-4.52572000 2.05034000e-02
-4.49572000 2.00855000e-02
-4.46572000 2.26524000e-02
-4.43572000 2.52982000e-02
-4.40572000 2.21509000e-02
-4.37572000 1.85631000e-02
-4.34572000 1.64714000e-02
-4.31572000 1.49469000e-02
-4.28572000 1.41896000e-02
-4.25572000 1.39697000e-02
-4.22572000 1.41535000e-02
-4.19572000 1.48055000e-02
-4.16572000 1.61510000e-02
-4.13572000 1.82866000e-02
-4.10572000 2.01711000e-02
-4.07572000 2.07700000e-02
-4.04572000 2.27597000e-02
-4.01572000 2.61509000e-02
-3.98572000 2.95905000e-02
-3.95572000 3.64732000e-02
-3.92572000 5.10134000e-02
-3.89572000 7.01235000e-02
-3.86572000 7.78423000e-02
-3.83572000 7.49228000e-02
-3.80572000 7.47857000e-02
-3.77572000 7.41176000e-02
-3.72212000 4.55553000e-02
-3.69212000 3.49079000e-02
-3.66212000 2.93417000e-02
-3.63212000 2.79437000e-02
-3.60212000 2.96562000e-02
-3.57212000 3.20595000e-02
-3.54212000 3.71184000e-02
-3.51212000 4.70817000e-02
-3.48212000 5.50716000e-02
-3.45212000 4.50177000e-02
-3.42212000 3.26080000e-02
-3.39212000 2.62252000e-02
-3.36212000 2.37613000e-02
-3.33212000 2.43200000e-02
-3.30212000 2.65421000e-02
-3.27212000 2.60052000e-02
-3.24212000 2.30540000e-02
-3.21212000 2.18921000e-02
-3.18212000 2.26722000e-02
-3.15212000 2.46813000e-02
-3.12212000 2.71742000e-02
-3.09212000 2.77690000e-02
-3.06212000 2.76372000e-02
-3.03212000 2.81721000e-02
-3.00212000 2.70693000e-02
-2.97212000 2.40536000e-02
-2.94212000 2.17244000e-02
-2.91212000 2.05517000e-02
-2.88212000 2.00396000e-02
-2.85212000 2.01068000e-02
-2.82212000 2.05645000e-02
-2.79212000 2.09748000e-02
-2.76212000 2.19771000e-02
-2.73212000 2.33577000e-02
-2.70212000 2.46112000e-02
-2.67212000 2.69634000e-02
-2.64212000 3.14860000e-02
-2.58852000 4.55993000e-02
-2.55852000 6.04267000e-02
-2.52852000 7.41786000e-02
-2.49852000 7.00538000e-02
-2.46852000 5.68018000e-02
-2.43852000 4.63253000e-02
-2.40852000 4.31472000e-02
-2.37852000 4.60978000e-02
-2.34852000 5.44890000e-02
-2.31852000 6.88695000e-02
-2.28852000 9.45204000e-02
-2.25852000 1.37994000e-01
-2.22852000 1.76436000e-01
-2.19852000 1.45980000e-01
-2.16852000 9.92083000e-02
-2.13852000 7.36258000e-02
-2.10852000 5.95107000e-02
-2.07852000 5.17270000e-02
-2.04852000 5.18033000e-02
-2.01852000 5.90438000e-02
-1.98852000 6.44108000e-02
-1.95852000 5.59168000e-02
-1.92852000 4.49097000e-02
-1.89852000 3.82274000e-02
-1.86852000 3.55103000e-02
-1.83852000 3.56300000e-02
-1.80852000 3.74609000e-02
-1.77852000 4.21037000e-02
-1.74852000 5.02623000e-02
-1.71852000 5.62040000e-02
-1.68852000 5.00420000e-02
-1.65852000 4.34232000e-02
-1.62852000 4.11877000e-02
-1.59852000 4.23458000e-02
-1.56852000 4.51860000e-02
-1.53852000 4.42243000e-02
-1.50852000 4.11835000e-02
-1.45493000 3.91830000e-02
-1.42493000 3.95307000e-02
-1.39493000 4.10619000e-02
-1.36493000 4.17949000e-02
-1.33493000 4.28552000e-02
-1.30493000 4.54815000e-02
-1.27493000 4.90753000e-02
-1.24493000 5.39303000e-02
-1.21493000 5.70406000e-02
-1.18493000 5.49408000e-02
-1.15493000 5.36843000e-02
-1.12493000 5.55918000e-02
-1.09493000 6.02418000e-02
-1.06493000 6.56520000e-02
-1.03493000 6.89796000e-02
-1.00493000 7.23425000e-02
-0.97492600 8.09033000e-02
-0.94492600 9.29841000e-02
-0.91492600 1.06552000e-01
-0.88492600 1.29295000e-01
-0.85492600 1.81069000e-01
-0.82492600 2.73498000e-01
-0.79492600 3.33154000e-01
-0.76492600 2.58131000e-01
-0.73492600 1.77990000e-01
-0.70492600 1.40751000e-01
-0.67492600 1.27380000e-01
-0.64492600 1.20793000e-01
-0.61492600 1.20767000e-01
-0.58492600 1.27201000e-01
-0.55492600 1.32717000e-01
-0.52492600 1.42009000e-01
-0.49492600 1.61906000e-01
-0.46492600 1.98128000e-01
-0.43492600 2.49667000e-01
-0.40492600 2.97638000e-01
-0.37492600 3.70362000e-01
-0.32132800 7.23598000e-01
-0.29132800 1.16260000e+00
-0.26132800 1.54376000e+00
-0.23132800 1.54681000e+00
-0.20132800 1.18372000e+00
-0.17132800 7.64929000e-01
-0.14132800 5.27310000e-01
-0.11132800 4.13148000e-01
-0.08132790 3.64178000e-01
-0.05132790 3.57129000e-01
-0.02132790 3.88199000e-01
0.00867212 4.59008000e-01
0.03867210 5.97966000e-01
0.06867210 8.54431000e-01
0.09867210 1.29005000e+00
0.12867200 1.62211000e+00
0.15867200 1.36304000e+00
0.18867200 1.11965000e+00
0.21867200 1.12604000e+00
0.24867200 1.26286000e+00
0.27867200 1.54249000e+00
0.30867200 2.17380000e+00
0.33867200 2.99244000e+00
0.36867200 2.85530000e+00
0.39867200 1.93063000e+00
0.42867200 1.31858000e+00
0.45867200 1.04960000e+00
0.48867200 1.00515000e+00
0.51867200 1.19254000e+00
0.54867200 1.53785000e+00
0.57867200 1.54828000e+00
0.60867200 1.28633000e+00
0.63867200 1.22248000e+00
0.66867200 1.36123000e+00
0.69867200 1.62543000e+00
0.72867200 2.25590000e+00
0.75867200 3.46559000e+00
