# E(MeV)  S_GAMTGAMT(Total=K0+2*K1) for Dy171_DDPCX
-4.63675000 1.58504300e-02
-4.60675000 1.38434300e-02
-4.57675000 1.25579500e-02
-4.54675000 1.17207500e-02
-4.51675000 1.11723600e-02
-4.48675000 1.08161800e-02
-4.45675000 1.05917200e-02
-4.42675000 1.04601600e-02
-4.39675000 1.03961000e-02
-4.36675000 1.03827600e-02
-4.33675000 1.04092300e-02
-4.30675000 1.04688100e-02
-4.27675000 1.05583600e-02
-4.24675000 1.06784200e-02
-4.21675000 1.08346400e-02
-4.18675000 1.10419000e-02
-4.15675000 1.13347300e-02
-4.12675000 1.17937900e-02
-4.09184000 1.27696000e-02
-4.06184000 1.39839700e-02
-4.03184000 1.40778000e-02
-4.00184000 1.31783600e-02
-3.97184000 1.26602000e-02
-3.94184000 1.25018500e-02
-3.91184000 1.25222300e-02
-3.88184000 1.26345900e-02
-3.85184000 1.28016500e-02
-3.82184000 1.30069100e-02
-3.79184000 1.32431100e-02
-3.76184000 1.35074800e-02
-3.73184000 1.37997400e-02
-3.70184000 1.41212100e-02
-3.67184000 1.44745200e-02
-3.64184000 1.48633200e-02
-3.61184000 1.52924800e-02
-3.58184000 1.57681600e-02
-3.54694000 1.63905000e-02
-3.51694000 1.69960000e-02
-3.48694000 1.76801300e-02
-3.45694000 1.84591400e-02
-3.42694000 1.93540000e-02
-3.39694000 2.03921300e-02
-3.36694000 2.16098200e-02
-3.33694000 2.30560200e-02
-3.30694000 2.47981200e-02
-3.27694000 2.69306400e-02
-3.24694000 2.95905800e-02
-3.21694000 3.29809800e-02
-3.18694000 3.74149400e-02
-3.15694000 4.33944400e-02
-3.12694000 5.17641000e-02
-3.09694000 6.40292000e-02
-3.06694000 8.30608200e-02
-3.03694000 1.14775820e-01
-3.00204000 1.85856600e-01
-2.97204000 3.12001200e-01
-2.94204000 5.30606000e-01
-2.91204000 6.35374200e-01
-2.88204000 4.44820400e-01
-2.85204000 2.87775000e-01
-2.82204000 2.33966600e-01
-2.79204000 2.52281400e-01
-2.76204000 2.68063400e-01
-2.73204000 2.04420000e-01
-2.70204000 1.50971800e-01
-2.67204000 1.33608000e-01
-2.64204000 1.45702500e-01
-2.61204000 1.94668100e-01
-2.58204000 3.05974600e-01
-2.55204000 4.51429500e-01
-2.52204000 4.00568900e-01
-2.49204000 2.43050800e-01
-2.45714000 1.38520700e-01
-2.42714000 9.63515000e-02
-2.39714000 7.47195000e-02
-2.36714000 6.42027000e-02
-2.33714000 5.76901000e-02
-2.30714000 4.87933000e-02
-2.27714000 4.13976100e-02
-2.24714000 3.66818900e-02
-2.21714000 3.35953200e-02
-2.18714000 3.14589100e-02
-2.15714000 2.99256000e-02
-2.12714000 2.88074400e-02
-2.09714000 2.79945000e-02
-2.06714000 2.74196400e-02
-2.03714000 2.70427300e-02
-2.00714000 2.68436300e-02
-1.97714000 2.68232400e-02
-1.94714000 2.70140200e-02
-1.91224000 2.76323700e-02
-1.88224000 2.87835200e-02
-1.85224000 3.08737800e-02
-1.82224000 3.27919900e-02
-1.79224000 3.25608200e-02
-1.76224000 3.13502500e-02
-1.73224000 3.05269700e-02
-1.70224000 3.05795700e-02
-1.67224000 3.12831200e-02
-1.64224000 3.25451800e-02
-1.61224000 3.44934100e-02
-1.58224000 3.74187700e-02
-1.55224000 4.19378400e-02
-1.52224000 5.00535600e-02
-1.49224000 6.56831400e-02
-1.46224000 9.01327800e-02
-1.43224000 9.64380400e-02
-1.40224000 7.98607300e-02
-1.36734000 7.48064700e-02
-1.33734000 8.30403100e-02
-1.30734000 7.92933400e-02
-1.27734000 6.64410700e-02
-1.24734000 6.17761600e-02
-1.21734000 6.41947300e-02
-1.18734000 6.28988300e-02
-1.15734000 5.65216600e-02
-1.12734000 5.29946400e-02
-1.09734000 5.21603400e-02
-1.06734000 5.28208900e-02
-1.03734000 5.44118700e-02
-1.00734000 5.67228900e-02
-0.97733700 5.97286800e-02
-0.94733700 6.35522400e-02
-0.91733700 6.85037400e-02
-0.88733700 7.47514000e-02
-0.85733700 8.07398500e-02
-0.82243500 8.70211600e-02
-0.79243500 9.38693900e-02
-0.76243500 1.02936960e-01
-0.73243500 1.14610330e-01
-0.70243500 1.29537480e-01
-0.67243500 1.48808710e-01
-0.64243500 1.73562620e-01
-0.61243500 2.05904750e-01
-0.58243500 2.50929070e-01
-0.55243500 3.15605300e-01
-0.52243500 4.10569600e-01
-0.49243500 5.44761100e-01
-0.46243500 7.57250800e-01
-0.43243500 1.13748870e+00
-0.40243500 1.87517500e+00
-0.37243500 3.33535210e+00
-0.34243500 5.17356770e+00
-0.31243500 4.57222840e+00
-0.27753300 2.43419070e+00
-0.24753300 1.41740100e+00
-0.21753300 9.11876400e-01
-0.18753300 6.51158100e-01
-0.15753300 5.17188400e-01
-0.12753300 4.38125600e-01
-0.09753330 3.58535300e-01
-0.06753330 3.00782700e-01
-0.03753330 2.72105500e-01
-0.00753332 2.68234000e-01
0.02246670 2.93666100e-01
0.05246670 3.68386400e-01
0.08246670 4.97078300e-01
0.11246700 5.10143100e-01
0.14246700 3.76529000e-01
0.17246700 2.86258200e-01
0.20246700 2.47822700e-01
0.23246700 2.35676100e-01
0.26736800 2.35816900e-01
0.29736800 2.44767500e-01
0.32736800 2.68415200e-01
0.35736800 3.13066600e-01
0.38736800 3.93504000e-01
0.41736800 5.35486000e-01
0.44736800 6.98632000e-01
0.47736800 7.35586000e-01
0.50736800 7.62748000e-01
0.53736800 8.04154800e-01
0.56736800 9.04183000e-01
0.59736800 1.13665750e+00
0.62736800 1.56386060e+00
0.65736800 2.39287530e+00
0.68736800 4.06420320e+00
0.71736800 7.15261420e+00
0.74736800 9.67766410e+00
0.77736800 7.22377590e+00
