# E(MeV)  S_GAMTGAMT(K=0) for Dy171_DDPCX
-4.63675000 9.64595000e-03
-4.60675000 7.57813000e-03
-4.57675000 6.23071000e-03
-4.54675000 5.33027000e-03
-4.51675000 4.71716000e-03
-4.48675000 4.29450000e-03
-4.45675000 4.00152000e-03
-4.42675000 3.79898000e-03
-4.39675000 3.66092000e-03
-4.36675000 3.56982000e-03
-4.33675000 3.51359000e-03
-4.30675000 3.48379000e-03
-4.27675000 3.47448000e-03
-4.24675000 3.48138000e-03
-4.21675000 3.50146000e-03
-4.18675000 3.53254000e-03
-4.15675000 3.57309000e-03
-4.12675000 3.62203000e-03
-4.09184000 3.68862000e-03
-4.06184000 3.75373000e-03
-4.03184000 3.82596000e-03
-4.00184000 3.90538000e-03
-3.97184000 3.99222000e-03
-3.94184000 4.08689000e-03
-3.91184000 4.18999000e-03
-3.88184000 4.30225000e-03
-3.85184000 4.42463000e-03
-3.82184000 4.55827000e-03
-3.79184000 4.70457000e-03
-3.76184000 4.86522000e-03
-3.73184000 5.04224000e-03
-3.70184000 5.23807000e-03
-3.67184000 5.45568000e-03
-3.64184000 5.69864000e-03
-3.61184000 5.97134000e-03
-3.58184000 6.27918000e-03
-3.54694000 6.69052000e-03
-3.51694000 7.09958000e-03
-3.48694000 7.57149000e-03
-3.45694000 8.12040000e-03
-3.42694000 8.76470000e-03
-3.39694000 9.52861000e-03
-3.36694000 1.04445000e-02
-3.33694000 1.15565000e-02
-3.30694000 1.29259000e-02
-3.27694000 1.46395000e-02
-3.24694000 1.68244000e-02
-3.21694000 1.96708000e-02
-3.18694000 2.34747000e-02
-3.15694000 2.87151000e-02
-3.12694000 3.62049000e-02
-3.09694000 4.74045000e-02
-3.06694000 6.51197000e-02
-3.03694000 9.51690000e-02
-3.00204000 1.63663000e-01
-2.97204000 2.86722000e-01
-2.94204000 5.00940000e-01
-2.91204000 5.99098000e-01
-2.88204000 3.97822000e-01
-2.85204000 2.21765000e-01
-2.82204000 1.31443000e-01
-2.79204000 8.52140000e-02
-2.76204000 5.95454000e-02
-2.73204000 4.41162000e-02
-2.70204000 3.42184000e-02
-2.67204000 2.75322000e-02
-2.64204000 2.28267000e-02
-2.61204000 1.94071000e-02
-2.58204000 1.68606000e-02
-2.55204000 1.49335000e-02
-2.52204000 1.34689000e-02
-2.49204000 1.23768000e-02
-2.45714000 1.15399000e-02
-2.42714000 1.12671000e-02
-2.39714000 1.16515000e-02
-2.36714000 1.29451000e-02
-2.33714000 1.34371000e-02
-2.30714000 1.13355000e-02
-2.27714000 9.43421000e-03
-2.24714000 8.33949000e-03
-2.21714000 7.68052000e-03
-2.18714000 7.24011000e-03
-2.15714000 6.92080000e-03
-2.12714000 6.67664000e-03
-2.09714000 6.48410000e-03
-2.06714000 6.33024000e-03
-2.03714000 6.20793000e-03
-2.00714000 6.11383000e-03
-1.97714000 6.04804000e-03
-1.94714000 6.01522000e-03
-1.91224000 6.03657000e-03
-1.88224000 6.14472000e-03
-1.85224000 6.42238000e-03
-1.82224000 7.01979000e-03
-1.79224000 7.71522000e-03
-1.76224000 7.32865000e-03
-1.73224000 6.52777000e-03
-1.70224000 6.06357000e-03
-1.67224000 5.82712000e-03
-1.64224000 5.69938000e-03
-1.61224000 5.62601000e-03
-1.58224000 5.58277000e-03
-1.55224000 5.55804000e-03
-1.52224000 5.54576000e-03
-1.49224000 5.54254000e-03
-1.46224000 5.54638000e-03
-1.43224000 5.55604000e-03
-1.40224000 5.57073000e-03
-1.36734000 5.59347000e-03
-1.33734000 5.61751000e-03
-1.30734000 5.64554000e-03
-1.27734000 5.67747000e-03
-1.24734000 5.71336000e-03
-1.21734000 5.75333000e-03
-1.18734000 5.79763000e-03
-1.15734000 5.84666000e-03
-1.12734000 5.90104000e-03
-1.09734000 5.96174000e-03
-1.06734000 6.03029000e-03
-1.03734000 6.10927000e-03
-1.00734000 6.20329000e-03
-0.97733700 6.32128000e-03
-0.94733700 6.48204000e-03
-0.91733700 6.72674000e-03
-0.88733700 7.12740000e-03
-0.85733700 7.67125000e-03
-0.82243500 7.78136000e-03
-0.79243500 7.44199000e-03
-0.76243500 7.29256000e-03
-0.73243500 7.31973000e-03
-0.70243500 7.46208000e-03
-0.67243500 7.71511000e-03
-0.64243500 8.13242000e-03
-0.61243500 8.83155000e-03
-0.58243500 9.72907000e-03
-0.55243500 1.00933000e-02
-0.52243500 1.03396000e-02
-0.49243500 1.11931000e-02
-0.46243500 1.15408000e-02
-0.43243500 1.09987000e-02
-0.40243500 1.08670000e-02
-0.37243500 1.12721000e-02
-0.34243500 1.21477000e-02
-0.31243500 1.36084000e-02
-0.27753300 1.64507000e-02
-0.24753300 2.01930000e-02
-0.21753300 2.64624000e-02
-0.18753300 3.91461000e-02
-0.15753300 6.26284000e-02
-0.12753300 7.93896000e-02
-0.09753330 5.96013000e-02
-0.06753330 3.80707000e-02
-0.03753330 2.70195000e-02
-0.00753332 2.17680000e-02
0.02246670 1.92961000e-02
0.05246670 1.83044000e-02
0.08246670 1.82623000e-02
0.11246700 1.90111000e-02
0.14246700 2.06590000e-02
0.17246700 2.35542000e-02
0.20246700 2.74227000e-02
0.23246700 3.07501000e-02
0.26736800 3.60279000e-02
0.29736800 4.33875000e-02
0.32736800 5.69232000e-02
0.35736800 8.26386000e-02
0.38736800 1.33756000e-01
0.41736800 2.31594000e-01
0.44736800 3.26344000e-01
0.47736800 2.56948000e-01
0.50736800 1.50792000e-01
0.53736800 9.28748000e-02
0.56736800 6.43190000e-02
0.59736800 4.95715000e-02
0.62736800 4.17206000e-02
0.65736800 3.77553000e-02
0.68736800 3.63432000e-02
0.71736800 3.69742000e-02
0.74736800 3.96641000e-02
0.77736800 4.49559000e-02
