# E(MeV)  S_NSDRNSDR(K=1) for Dy171_DDPCX
-4.63675000 -1.32511000e-02
-4.60675000 -1.10675000e-02
-4.57675000 -8.88790000e-03
-4.54675000 -6.70844000e-03
-4.51675000 -4.52529000e-03
-4.48675000 -2.33452000e-03
-4.45675000 -1.32071000e-04
-4.42675000 2.08627000e-03
-4.39675000 4.32488000e-03
-4.36675000 6.58835000e-03
-4.33675000 8.88154000e-03
-4.30675000 1.12096000e-02
-4.27675000 1.35780000e-02
-4.24675000 1.59925000e-02
-4.21675000 1.84597000e-02
-4.18675000 2.09861000e-02
-4.15675000 2.35794000e-02
-4.12675000 2.62477000e-02
-4.09184000 2.94580000e-02
-4.06184000 3.23201000e-02
-4.03184000 3.52887000e-02
-4.00184000 3.83761000e-02
-3.97184000 4.15960000e-02
-3.94184000 4.49641000e-02
-3.91184000 4.84978000e-02
-3.88184000 5.22170000e-02
-3.85184000 5.61444000e-02
-3.82184000 6.03061000e-02
-3.79184000 6.47322000e-02
-3.76184000 6.94577000e-02
-3.73184000 7.45238000e-02
-3.70184000 7.99790000e-02
-3.67184000 8.58816000e-02
-3.64184000 9.23017000e-02
-3.61184000 9.93258000e-02
-3.58184000 1.07062000e-01
-3.54694000 1.17142000e-01
-3.51694000 1.26947000e-01
-3.48694000 1.38077000e-01
-3.45694000 1.50908000e-01
-3.42694000 1.66015000e-01
-3.39694000 1.84357000e-01
-3.36694000 2.07697000e-01
-3.33694000 2.39628000e-01
-3.30694000 2.87920000e-01
-3.27694000 3.65005000e-01
-3.24694000 4.46028000e-01
-3.21694000 4.43189000e-01
-3.18694000 4.25616000e-01
-3.15694000 4.43779000e-01
-3.12694000 4.90798000e-01
-3.09694000 5.62829000e-01
-3.06694000 6.63289000e-01
-3.03694000 8.01961000e-01
-3.00204000 1.03617000e+00
-2.97204000 1.33945000e+00
-2.94204000 1.80696000e+00
-2.91204000 2.57563000e+00
-2.88204000 3.94405000e+00
-2.85204000 6.59247000e+00
-2.82204000 1.17658000e+01
-2.79204000 1.80436000e+01
-2.76204000 1.56959000e+01
-2.73204000 9.36904000e+00
-2.70204000 5.86390000e+00
-2.67204000 4.55749000e+00
-2.64204000 4.66724000e+00
-2.61204000 5.02979000e+00
-2.58204000 3.78672000e+00
-2.55204000 2.42767000e+00
-2.52204000 1.67351000e+00
-2.49204000 1.27559000e+00
-2.45714000 1.03717000e+00
-2.42714000 9.47347000e-01
-2.39714000 9.47341000e-01
-2.36714000 1.06484000e+00
-2.33714000 1.36984000e+00
-2.30714000 1.74527000e+00
-2.27714000 1.58727000e+00
-2.24714000 1.25149000e+00
-2.21714000 1.14459000e+00
-2.18714000 1.22549000e+00
-2.15714000 1.34298000e+00
-2.12714000 1.50489000e+00
-2.09714000 1.92870000e+00
-2.06714000 2.85326000e+00
-2.03714000 4.74964000e+00
-2.00714000 7.57149000e+00
-1.97714000 7.58192000e+00
-1.94714000 4.93258000e+00
-1.91224000 3.19033000e+00
-1.88224000 2.89299000e+00
-1.85224000 3.49765000e+00
-1.82224000 4.65287000e+00
-1.79224000 4.23858000e+00
-1.76224000 2.74727000e+00
-1.73224000 1.84344000e+00
-1.70224000 1.42614000e+00
-1.67224000 1.27290000e+00
-1.64224000 1.30463000e+00
-1.61224000 1.54685000e+00
-1.58224000 2.14840000e+00
-1.55224000 3.37637000e+00
-1.52224000 4.61660000e+00
-1.49224000 3.79123000e+00
-1.46224000 2.39807000e+00
-1.43224000 1.60836000e+00
-1.40224000 1.22980000e+00
-1.36734000 1.03714000e+00
-1.33734000 9.83112000e-01
-1.30734000 9.96121000e-01
-1.27734000 1.06710000e+00
-1.24734000 1.20213000e+00
-1.21734000 1.42318000e+00
-1.18734000 1.77739000e+00
-1.15734000 2.36093000e+00
-1.12734000 3.36067000e+00
-1.09734000 5.07473000e+00
-1.06734000 8.26556000e+00
-1.03734000 1.43484000e+01
-1.00734000 1.95755000e+01
-0.97733700 1.47212000e+01
-0.94733700 8.46309000e+00
-0.91733700 5.13420000e+00
-0.88733700 3.51040000e+00
-0.85733700 2.70629000e+00
-0.82243500 2.31887000e+00
-0.79243500 2.31972000e+00
-0.76243500 2.65567000e+00
-0.73243500 3.49521000e+00
-0.70243500 5.15947000e+00
-0.67243500 7.62328000e+00
-0.64243500 9.53600000e+00
-0.61243500 1.11550000e+01
-0.58243500 8.88683000e+00
-0.55243500 5.27075000e+00
-0.52243500 3.20178000e+00
-0.49243500 2.14166000e+00
-0.46243500 1.55968000e+00
-0.43243500 1.21304000e+00
-0.40243500 9.92444000e-01
-0.37243500 8.45013000e-01
-0.34243500 7.43173000e-01
-0.31243500 6.71609000e-01
-0.27753300 6.14889000e-01
-0.24753300 5.83301000e-01
-0.21753300 5.65013000e-01
-0.18753300 5.59915000e-01
-0.15753300 5.71146000e-01
-0.12753300 6.07295000e-01
-0.09753330 6.72050000e-01
-0.06753330 7.02039000e-01
-0.03753330 6.82786000e-01
-0.00753332 6.87832000e-01
0.02246670 7.24535000e-01
0.05246670 8.05123000e-01
0.08246670 9.53917000e-01
0.11246700 1.23052000e+00
0.14246700 1.73714000e+00
0.17246700 2.27471000e+00
0.20246700 2.08384000e+00
0.23246700 1.72473000e+00
0.26736800 1.65979000e+00
0.29736800 1.86949000e+00
0.32736800 2.35986000e+00
0.35736800 3.23810000e+00
0.38736800 4.46636000e+00
0.41736800 5.57999000e+00
0.44736800 5.33709000e+00
0.47736800 5.21642000e+00
0.50736800 6.23478000e+00
0.53736800 8.81682000e+00
0.56736800 1.42521000e+01
0.59736800 2.50506000e+01
0.62736800 3.75932000e+01
0.65736800 3.18766000e+01
0.68736800 1.90123000e+01
0.71736800 1.21109000e+01
0.74736800 9.70393000e+00
0.77736800 9.48944000e+00
