# E(MeV)  S_GAMTGAMT(K=1) for Dy171_DDPCX
-4.63675000 3.10224000e-03
-4.60675000 3.13265000e-03
-4.57675000 3.16362000e-03
-4.54675000 3.19524000e-03
-4.51675000 3.22760000e-03
-4.48675000 3.26084000e-03
-4.45675000 3.29510000e-03
-4.42675000 3.33059000e-03
-4.39675000 3.36759000e-03
-4.36675000 3.40647000e-03
-4.33675000 3.44782000e-03
-4.30675000 3.49251000e-03
-4.27675000 3.54194000e-03
-4.24675000 3.59852000e-03
-4.21675000 3.66659000e-03
-4.18675000 3.75468000e-03
-4.15675000 3.88082000e-03
-4.12675000 4.08588000e-03
-4.09184000 4.54049000e-03
-4.06184000 5.11512000e-03
-4.03184000 5.12592000e-03
-4.00184000 4.63649000e-03
-3.97184000 4.33399000e-03
-3.94184000 4.20748000e-03
-3.91184000 4.16612000e-03
-3.88184000 4.16617000e-03
-3.85184000 4.18851000e-03
-3.82184000 4.22432000e-03
-3.79184000 4.26927000e-03
-3.76184000 4.32113000e-03
-3.73184000 4.37875000e-03
-3.70184000 4.44157000e-03
-3.67184000 4.50942000e-03
-3.64184000 4.58234000e-03
-3.61184000 4.66057000e-03
-3.58184000 4.74449000e-03
-3.54694000 4.84999000e-03
-3.51694000 4.94821000e-03
-3.48694000 5.05432000e-03
-3.45694000 5.16937000e-03
-3.42694000 5.29465000e-03
-3.39694000 5.43176000e-03
-3.36694000 5.58266000e-03
-3.33694000 5.74976000e-03
-3.30694000 5.93611000e-03
-3.27694000 6.14557000e-03
-3.24694000 6.38309000e-03
-3.21694000 6.65509000e-03
-3.18694000 6.97012000e-03
-3.15694000 7.33967000e-03
-3.12694000 7.77960000e-03
-3.09694000 8.31235000e-03
-3.06694000 8.97056000e-03
-3.03694000 9.80341000e-03
-3.00204000 1.10968000e-02
-2.97204000 1.26396000e-02
-2.94204000 1.48330000e-02
-2.91204000 1.81381000e-02
-2.88204000 2.34992000e-02
-2.85204000 3.30050000e-02
-2.82204000 5.12618000e-02
-2.79204000 8.35337000e-02
-2.76204000 1.04259000e-01
-2.73204000 8.01519000e-02
-2.70204000 5.83767000e-02
-2.67204000 5.30379000e-02
-2.64204000 6.14379000e-02
-2.61204000 8.76305000e-02
-2.58204000 1.44557000e-01
-2.55204000 2.18248000e-01
-2.52204000 1.93550000e-01
-2.49204000 1.15337000e-01
-2.45714000 6.34904000e-02
-2.42714000 4.25422000e-02
-2.39714000 3.15340000e-02
-2.36714000 2.56288000e-02
-2.33714000 2.21265000e-02
-2.30714000 1.87289000e-02
-2.27714000 1.59817000e-02
-2.24714000 1.41712000e-02
-2.21714000 1.29574000e-02
-2.18714000 1.21094000e-02
-2.15714000 1.15024000e-02
-2.12714000 1.10654000e-02
-2.09714000 1.07552000e-02
-2.06714000 1.05447000e-02
-2.03714000 1.04174000e-02
-2.00714000 1.03649000e-02
-1.97714000 1.03876000e-02
-1.94714000 1.04994000e-02
-1.91224000 1.07979000e-02
-1.88224000 1.13194000e-02
-1.85224000 1.22257000e-02
-1.82224000 1.28861000e-02
-1.79224000 1.24228000e-02
-1.76224000 1.20108000e-02
-1.73224000 1.19996000e-02
-1.70224000 1.22580000e-02
-1.67224000 1.27280000e-02
-1.64224000 1.34229000e-02
-1.61224000 1.44337000e-02
-1.58224000 1.59180000e-02
-1.55224000 1.81899000e-02
-1.52224000 2.22539000e-02
-1.49224000 3.00703000e-02
-1.46224000 4.22932000e-02
-1.43224000 4.54410000e-02
-1.40224000 3.71450000e-02
-1.36734000 3.46065000e-02
-1.33734000 3.87114000e-02
-1.30734000 3.68239000e-02
-1.27734000 3.03818000e-02
-1.24734000 2.80314000e-02
-1.21734000 2.92207000e-02
-1.18734000 2.85506000e-02
-1.15734000 2.53375000e-02
-1.12734000 2.35468000e-02
-1.09734000 2.30993000e-02
-1.06734000 2.33953000e-02
-1.03734000 2.41513000e-02
-1.00734000 2.52598000e-02
-0.97733700 2.67037000e-02
-0.94733700 2.85351000e-02
-0.91733700 3.08885000e-02
-0.88733700 3.38120000e-02
-0.85733700 3.65343000e-02
-0.82243500 3.96199000e-02
-0.79243500 4.32137000e-02
-0.76243500 4.78222000e-02
-0.73243500 5.36453000e-02
-0.70243500 6.10377000e-02
-0.67243500 7.05468000e-02
-0.64243500 8.27151000e-02
-0.61243500 9.85366000e-02
-0.58243500 1.20600000e-01
-0.55243500 1.52756000e-01
-0.52243500 2.00115000e-01
-0.49243500 2.66784000e-01
-0.46243500 3.72855000e-01
-0.43243500 5.63245000e-01
-0.40243500 9.32154000e-01
-0.37243500 1.66204000e+00
-0.34243500 2.58071000e+00
-0.31243500 2.27931000e+00
-0.27753300 1.20887000e+00
-0.24753300 6.98604000e-01
-0.21753300 4.42707000e-01
-0.18753300 3.06006000e-01
-0.15753300 2.27280000e-01
-0.12753300 1.79368000e-01
-0.09753330 1.49467000e-01
-0.06753330 1.31356000e-01
-0.03753330 1.22543000e-01
-0.00753332 1.23233000e-01
0.02246670 1.37185000e-01
0.05246670 1.75041000e-01
0.08246670 2.39408000e-01
0.11246700 2.45566000e-01
0.14246700 1.77935000e-01
0.17246700 1.31352000e-01
0.20246700 1.10200000e-01
0.23246700 1.02463000e-01
0.26736800 9.98945000e-02
0.29736800 1.00690000e-01
0.32736800 1.05746000e-01
0.35736800 1.15214000e-01
0.38736800 1.29874000e-01
0.41736800 1.51946000e-01
0.44736800 1.86144000e-01
0.47736800 2.39319000e-01
0.50736800 3.05978000e-01
0.53736800 3.55640000e-01
0.56736800 4.19932000e-01
0.59736800 5.43543000e-01
0.62736800 7.61070000e-01
0.65736800 1.17756000e+00
0.68736800 2.01393000e+00
0.71736800 3.55782000e+00
0.74736800 4.81900000e+00
0.77736800 3.58941000e+00
