# E(MeV)  S_GAMTGAMT(K=0) for Er179_DDPCX
-6.38879000 2.26004000e-03
-6.35879000 2.27342000e-03
-6.32879000 2.28682000e-03
-6.29879000 2.30024000e-03
-6.26879000 2.31371000e-03
-6.23879000 2.32722000e-03
-6.20879000 2.34080000e-03
-6.17879000 2.35445000e-03
-6.14879000 2.36817000e-03
-6.11879000 2.38198000e-03
-6.08879000 2.39588000e-03
-6.05879000 2.40988000e-03
-6.02879000 2.42399000e-03
-5.99879000 2.43822000e-03
-5.96879000 2.45257000e-03
-5.93879000 2.46706000e-03
-5.90879000 2.48168000e-03
-5.87879000 2.49645000e-03
-5.84879000 2.51138000e-03
-5.81879000 2.52647000e-03
-5.78879000 2.54172000e-03
-5.75879000 2.55716000e-03
-5.72879000 2.57279000e-03
-5.69879000 2.58861000e-03
-5.66868000 2.60469000e-03
-5.63868000 2.62093000e-03
-5.60868000 2.63740000e-03
-5.57868000 2.65410000e-03
-5.54868000 2.67105000e-03
-5.51868000 2.68825000e-03
-5.48868000 2.70572000e-03
-5.45868000 2.72347000e-03
-5.42868000 2.74152000e-03
-5.39868000 2.75987000e-03
-5.36868000 2.77854000e-03
-5.33868000 2.79756000e-03
-5.30868000 2.81692000e-03
-5.27868000 2.83667000e-03
-5.24868000 2.85680000e-03
-5.21868000 2.87735000e-03
-5.18868000 2.89833000e-03
-5.15868000 2.91977000e-03
-5.12868000 2.94169000e-03
-5.09868000 2.96413000e-03
-5.06868000 2.98711000e-03
-5.03868000 3.01067000e-03
-5.00868000 3.03484000e-03
-4.97868000 3.05966000e-03
-4.94858000 3.08527000e-03
-4.91858000 3.11153000e-03
-4.88858000 3.13859000e-03
-4.85858000 3.16651000e-03
-4.82858000 3.19534000e-03
-4.79858000 3.22517000e-03
-4.76858000 3.25608000e-03
-4.73858000 3.28815000e-03
-4.70858000 3.32149000e-03
-4.67858000 3.35622000e-03
-4.64858000 3.39247000e-03
-4.61858000 3.43039000e-03
-4.58858000 3.47017000e-03
-4.55858000 3.51200000e-03
-4.52858000 3.55612000e-03
-4.49858000 3.60281000e-03
-4.46858000 3.65239000e-03
-4.43858000 3.70527000e-03
-4.40858000 3.76189000e-03
-4.37858000 3.82282000e-03
-4.34858000 3.88875000e-03
-4.31858000 3.96051000e-03
-4.28858000 4.03915000e-03
-4.25858000 4.12596000e-03
-4.22847000 4.22297000e-03
-4.19847000 4.33164000e-03
-4.16847000 4.45507000e-03
-4.13847000 4.59697000e-03
-4.10847000 4.76233000e-03
-4.07847000 4.95805000e-03
-4.04847000 5.19384000e-03
-4.01847000 5.48377000e-03
-3.98847000 5.84876000e-03
-3.95847000 6.32110000e-03
-3.92847000 6.95251000e-03
-3.89847000 7.82994000e-03
-3.86847000 9.10771000e-03
-3.83847000 1.10783000e-02
-3.80847000 1.43392000e-02
-3.77847000 2.02091000e-02
-3.74847000 3.16844000e-02
-3.71847000 5.36657000e-02
-3.68847000 7.57740000e-02
-3.65847000 6.08165000e-02
-3.62847000 3.63660000e-02
-3.59847000 2.28542000e-02
-3.56847000 1.61143000e-02
-3.53847000 1.25304000e-02
-3.50837000 1.04740000e-02
-3.47837000 9.23470000e-03
-3.44837000 8.45753000e-03
-3.41837000 7.96402000e-03
-3.38837000 7.65584000e-03
-3.35837000 7.47599000e-03
-3.32837000 7.39014000e-03
-3.29837000 7.37647000e-03
-3.26837000 7.42106000e-03
-3.23837000 7.51688000e-03
-3.20837000 7.65979000e-03
-3.17837000 7.84792000e-03
-3.14837000 8.08158000e-03
-3.11837000 8.36301000e-03
-3.08837000 8.69630000e-03
-3.05837000 9.08750000e-03
-3.02837000 9.54488000e-03
-2.99837000 1.00794000e-02
-2.96837000 1.07055000e-02
-2.93837000 1.14417000e-02
-2.90837000 1.23128000e-02
-2.87837000 1.33513000e-02
-2.84837000 1.46007000e-02
-2.81837000 1.61203000e-02
-2.78826000 1.79996000e-02
-2.75826000 2.03422000e-02
-2.72826000 2.33228000e-02
-2.69826000 2.71933000e-02
-2.66826000 3.23426000e-02
-2.63826000 3.93943000e-02
-2.60826000 4.93957000e-02
-2.57826000 6.42049000e-02
-2.54826000 8.73390000e-02
-2.51826000 1.25973000e-01
-2.48826000 1.95912000e-01
-2.45826000 3.33115000e-01
-2.42826000 5.97732000e-01
-2.39826000 8.73500000e-01
-2.36826000 7.00038000e-01
-2.33826000 3.97208000e-01
-2.30826000 2.27904000e-01
-2.27826000 1.42904000e-01
-2.24826000 9.71834000e-02
-2.21826000 7.04584000e-02
-2.18826000 5.36956000e-02
-2.15826000 4.25725000e-02
-2.12826000 3.48560000e-02
-2.09826000 2.93135000e-02
-2.06815000 2.52154000e-02
-2.03815000 2.21589000e-02
-2.00815000 1.98737000e-02
-1.97815000 1.82410000e-02
-1.94815000 1.72915000e-02
-1.91815000 1.71802000e-02
-1.88815000 1.71962000e-02
-1.85815000 1.54750000e-02
-1.82815000 1.35518000e-02
-1.79815000 1.23092000e-02
-1.76815000 1.15042000e-02
-1.73815000 1.09541000e-02
-1.70815000 1.05853000e-02
-1.67815000 1.03901000e-02
-1.64815000 1.04263000e-02
-1.61815000 1.08647000e-02
-1.58815000 1.19355000e-02
-1.55815000 1.26742000e-02
-1.52815000 1.14192000e-02
-1.49815000 1.00866000e-02
-1.46815000 9.35608000e-03
-1.43815000 8.96675000e-03
-1.40815000 8.74876000e-03
-1.37815000 8.62760000e-03
-1.34805000 8.57053000e-03
-1.31805000 8.56393000e-03
-1.28805000 8.60334000e-03
-1.25805000 8.69196000e-03
-1.22805000 8.84219000e-03
-1.19805000 9.07961000e-03
-1.16805000 9.41076000e-03
-1.13805000 9.71326000e-03
-1.10805000 1.00441000e-02
-1.07805000 1.05910000e-02
-1.04805000 1.14627000e-02
-1.01805000 1.28684000e-02
-0.98804800 1.52034000e-02
-0.95804800 1.83953000e-02
-0.92804800 2.09182000e-02
-0.89804800 2.49237000e-02
-0.86804800 3.43006000e-02
-0.83804800 5.40996000e-02
-0.80804800 8.48723000e-02
-0.77804800 8.77691000e-02
-0.74804800 5.73673000e-02
-0.71804800 3.59119000e-02
-0.68804800 2.52629000e-02
-0.65804800 1.99609000e-02
-0.62794200 1.72868000e-02
-0.59794200 1.61578000e-02
-0.56794200 1.62428000e-02
-0.53794200 1.78083000e-02
-0.50794200 2.19167000e-02
-0.47794200 2.97929000e-02
-0.44794200 3.42714000e-02
-0.41794200 2.68800000e-02
-0.38794200 1.99712000e-02
-0.35794200 1.66042000e-02
-0.32794200 1.52007000e-02
-0.29794200 1.48671000e-02
-0.26794200 1.53042000e-02
-0.23794200 1.65555000e-02
-0.20794200 1.90071000e-02
-0.17794200 2.36628000e-02
-0.14794200 3.28998000e-02
-0.11794200 5.10339000e-02
-0.08794220 7.24302000e-02
-0.05794220 6.31583000e-02
-0.02794220 4.08271000e-02
0.00205784 2.79641000e-02
0.03205780 2.16520000e-02
0.06205780 1.84298000e-02
0.09216390 1.67142000e-02
0.12216400 1.58224000e-02
0.15216400 1.54255000e-02
0.18216400 1.53702000e-02
0.21216400 1.55879000e-02
0.24216400 1.60615000e-02
0.27216400 1.68157000e-02
0.30216400 1.79223000e-02
0.33216400 1.95247000e-02
0.36216400 2.18959000e-02
0.39216400 2.55746000e-02
0.42216400 3.16980000e-02
0.45216400 4.27930000e-02
0.48216400 6.36955000e-02
0.51216400 9.24311000e-02
0.54216400 9.90901000e-02
0.57216400 1.01490000e-01
0.60216400 1.21199000e-01
0.63216400 1.08173000e-01
0.66216400 7.23459000e-02
0.69216400 5.10487000e-02
0.72216400 4.11870000e-02
0.75216400 3.71765000e-02
0.78216400 3.66074000e-02
