# E(MeV)  S_GAMTGAMT(K=1) for Er179_DDPCX
-6.38879000 2.51220000e-03
-6.35879000 2.52690000e-03
-6.32879000 2.54168000e-03
-6.29879000 2.55656000e-03
-6.26879000 2.57153000e-03
-6.23879000 2.58661000e-03
-6.20879000 2.60180000e-03
-6.17879000 2.61711000e-03
-6.14879000 2.63254000e-03
-6.11879000 2.64810000e-03
-6.08879000 2.66380000e-03
-6.05879000 2.67964000e-03
-6.02879000 2.69562000e-03
-5.99879000 2.71176000e-03
-5.96879000 2.72806000e-03
-5.93879000 2.74452000e-03
-5.90879000 2.76115000e-03
-5.87879000 2.77796000e-03
-5.84879000 2.79495000e-03
-5.81879000 2.81212000e-03
-5.78879000 2.82949000e-03
-5.75879000 2.84706000e-03
-5.72879000 2.86483000e-03
-5.69879000 2.88282000e-03
-5.66868000 2.90109000e-03
-5.63868000 2.91952000e-03
-5.60868000 2.93819000e-03
-5.57868000 2.95710000e-03
-5.54868000 2.97625000e-03
-5.51868000 2.99567000e-03
-5.48868000 3.01535000e-03
-5.45868000 3.03531000e-03
-5.42868000 3.05555000e-03
-5.39868000 3.07608000e-03
-5.36868000 3.09693000e-03
-5.33868000 3.11809000e-03
-5.30868000 3.13958000e-03
-5.27868000 3.16141000e-03
-5.24868000 3.18360000e-03
-5.21868000 3.20616000e-03
-5.18868000 3.22912000e-03
-5.15868000 3.25247000e-03
-5.12868000 3.27626000e-03
-5.09868000 3.30049000e-03
-5.06868000 3.32520000e-03
-5.03868000 3.35040000e-03
-5.00868000 3.37612000e-03
-4.97868000 3.40240000e-03
-4.94858000 3.42937000e-03
-4.91858000 3.45687000e-03
-4.88858000 3.48505000e-03
-4.85858000 3.51396000e-03
-4.82858000 3.54365000e-03
-4.79858000 3.57418000e-03
-4.76858000 3.60565000e-03
-4.73858000 3.63812000e-03
-4.70858000 3.67171000e-03
-4.67858000 3.70654000e-03
-4.64858000 3.74276000e-03
-4.61858000 3.78053000e-03
-4.58858000 3.82008000e-03
-4.55858000 3.86165000e-03
-4.52858000 3.90556000e-03
-4.49858000 3.95222000e-03
-4.46858000 4.00212000e-03
-4.43858000 4.05590000e-03
-4.40858000 4.11440000e-03
-4.37858000 4.17871000e-03
-4.34858000 4.25032000e-03
-4.31858000 4.33122000e-03
-4.28858000 4.42426000e-03
-4.25858000 4.53346000e-03
-4.22847000 4.66529000e-03
-4.19847000 4.82791000e-03
-4.16847000 5.03610000e-03
-4.13847000 5.31354000e-03
-4.10847000 5.70146000e-03
-4.07847000 6.27614000e-03
-4.04847000 7.18938000e-03
-4.01847000 8.76787000e-03
-3.98847000 1.17561000e-02
-3.95847000 1.76572000e-02
-3.92847000 2.62065000e-02
-3.89847000 2.57643000e-02
-3.86847000 1.72823000e-02
-3.83847000 1.17566000e-02
-3.80847000 9.02548000e-03
-3.77847000 7.63724000e-03
-3.74847000 6.89409000e-03
-3.71847000 6.49527000e-03
-3.68847000 6.31120000e-03
-3.65847000 6.29814000e-03
-3.62847000 6.47941000e-03
-3.59847000 6.97543000e-03
-3.56847000 8.05176000e-03
-3.53847000 9.55002000e-03
-3.50837000 9.26548000e-03
-3.47837000 7.75433000e-03
-3.44837000 6.83584000e-03
-3.41837000 6.40596000e-03
-3.38837000 6.21637000e-03
-3.35837000 6.15446000e-03
-3.32837000 6.15670000e-03
-3.29837000 6.14869000e-03
-3.26837000 6.14931000e-03
-3.23837000 6.18165000e-03
-3.20837000 6.23702000e-03
-3.17837000 6.30845000e-03
-3.14837000 6.39270000e-03
-3.11837000 6.48843000e-03
-3.08837000 6.59536000e-03
-3.05837000 6.71389000e-03
-3.02837000 6.84498000e-03
-2.99837000 6.99015000e-03
-2.96837000 7.15156000e-03
-2.93837000 7.33216000e-03
-2.90837000 7.53594000e-03
-2.87837000 7.76839000e-03
-2.84837000 8.03703000e-03
-2.81837000 8.35250000e-03
-2.78826000 8.73152000e-03
-2.75826000 9.19407000e-03
-2.72826000 9.77584000e-03
-2.69826000 1.05315000e-02
-2.66826000 1.15516000e-02
-2.63826000 1.29944000e-02
-2.60826000 1.51549000e-02
-2.57826000 1.86224000e-02
-2.54826000 2.46532000e-02
-2.51826000 3.59279000e-02
-2.48826000 5.77016000e-02
-2.45826000 8.94243000e-02
-2.42826000 8.80667000e-02
-2.39826000 5.62665000e-02
-2.36826000 3.54054000e-02
-2.33826000 2.50423000e-02
-2.30826000 1.97127000e-02
-2.27826000 1.67707000e-02
-2.24826000 1.50543000e-02
-2.21826000 1.40217000e-02
-2.18826000 1.34003000e-02
-2.15826000 1.30431000e-02
-2.12826000 1.28663000e-02
-2.09826000 1.28207000e-02
-2.06815000 1.28767000e-02
-2.03815000 1.30170000e-02
-2.00815000 1.32329000e-02
-1.97815000 1.35235000e-02
-1.94815000 1.38956000e-02
-1.91815000 1.43675000e-02
-1.88815000 1.49772000e-02
-1.85815000 1.58028000e-02
-1.82815000 1.70124000e-02
-1.79815000 1.89886000e-02
-1.76815000 2.25330000e-02
-1.73815000 2.78684000e-02
-1.70815000 2.90823000e-02
-1.67815000 2.50105000e-02
-1.64815000 2.23843000e-02
-1.61815000 2.15511000e-02
-1.58815000 2.17226000e-02
-1.55815000 2.26060000e-02
-1.52815000 2.40421000e-02
-1.49815000 2.49586000e-02
-1.46815000 2.52051000e-02
-1.43815000 2.58488000e-02
-1.40815000 2.69269000e-02
-1.37815000 2.83154000e-02
-1.34805000 2.99747000e-02
-1.31805000 3.18959000e-02
-1.28805000 3.41161000e-02
-1.25805000 3.66932000e-02
-1.22805000 3.97211000e-02
-1.19805000 4.33567000e-02
-1.16805000 4.78778000e-02
-1.13805000 5.37867000e-02
-1.10805000 6.18855000e-02
-1.07805000 7.22849000e-02
-1.04805000 8.32079000e-02
-1.01805000 8.75965000e-02
-0.98804800 9.08623000e-02
-0.95804800 9.88877000e-02
-0.92804800 1.11493000e-01
-0.89804800 1.28830000e-01
-0.86804800 1.52032000e-01
-0.83804800 1.82603000e-01
-0.80804800 2.22703000e-01
-0.77804800 2.79066000e-01
-0.74804800 3.62150000e-01
-0.71804800 4.87891000e-01
-0.68804800 6.85933000e-01
-0.65804800 1.03051000e+00
-0.62794200 1.68926000e+00
-0.59794200 3.00402000e+00
-0.56794200 5.13256000e+00
-0.53794200 5.58313000e+00
-0.50794200 3.49868000e+00
-0.47794200 1.94592000e+00
-0.44794200 1.16181000e+00
-0.41794200 7.56817000e-01
-0.38794200 5.30208000e-01
-0.35794200 3.94549000e-01
-0.32794200 3.10350000e-01
-0.29794200 2.58864000e-01
-0.26794200 2.23689000e-01
-0.23794200 1.84995000e-01
-0.20794200 1.52615000e-01
-0.17794200 1.30699000e-01
-0.14794200 1.16062000e-01
-0.11794200 1.06784000e-01
-0.08794220 1.02471000e-01
-0.05794220 1.04274000e-01
-0.02794220 1.16013000e-01
0.00205784 1.46883000e-01
0.03205780 2.07574000e-01
0.06205780 2.48198000e-01
0.09216390 1.90232000e-01
0.12216400 1.27715000e-01
0.15216400 9.27936000e-02
0.18216400 7.43568000e-02
0.21216400 6.41191000e-02
0.24216400 5.81764000e-02
0.27216400 5.48134000e-02
0.30216400 5.33225000e-02
0.33216400 5.35859000e-02
0.36216400 5.60723000e-02
0.39216400 6.19615000e-02
0.42216400 7.05434000e-02
0.45216400 7.40430000e-02
0.48216400 7.76538000e-02
0.51216400 9.12435000e-02
0.54216400 1.22055000e-01
0.57216400 1.77030000e-01
0.60216400 2.26962000e-01
0.63216400 2.34491000e-01
0.66216400 1.92338000e-01
0.69216400 1.44177000e-01
0.72216400 1.15833000e-01
0.75216400 1.04916000e-01
0.78216400 1.05395000e-01
