# E(MeV)  S_GAMTGAMT(Total=K0+2*K1) for Er179_DDPCX
-6.38879000 7.28444000e-03
-6.35879000 7.32722000e-03
-6.32879000 7.37018000e-03
-6.29879000 7.41336000e-03
-6.26879000 7.45677000e-03
-6.23879000 7.50044000e-03
-6.20879000 7.54440000e-03
-6.17879000 7.58867000e-03
-6.14879000 7.63325000e-03
-6.11879000 7.67818000e-03
-6.08879000 7.72348000e-03
-6.05879000 7.76916000e-03
-6.02879000 7.81523000e-03
-5.99879000 7.86174000e-03
-5.96879000 7.90869000e-03
-5.93879000 7.95610000e-03
-5.90879000 8.00398000e-03
-5.87879000 8.05237000e-03
-5.84879000 8.10128000e-03
-5.81879000 8.15071000e-03
-5.78879000 8.20070000e-03
-5.75879000 8.25128000e-03
-5.72879000 8.30245000e-03
-5.69879000 8.35425000e-03
-5.66868000 8.40687000e-03
-5.63868000 8.45997000e-03
-5.60868000 8.51378000e-03
-5.57868000 8.56830000e-03
-5.54868000 8.62355000e-03
-5.51868000 8.67959000e-03
-5.48868000 8.73642000e-03
-5.45868000 8.79409000e-03
-5.42868000 8.85262000e-03
-5.39868000 8.91203000e-03
-5.36868000 8.97240000e-03
-5.33868000 9.03374000e-03
-5.30868000 9.09608000e-03
-5.27868000 9.15949000e-03
-5.24868000 9.22400000e-03
-5.21868000 9.28967000e-03
-5.18868000 9.35657000e-03
-5.15868000 9.42471000e-03
-5.12868000 9.49421000e-03
-5.09868000 9.56511000e-03
-5.06868000 9.63751000e-03
-5.03868000 9.71147000e-03
-5.00868000 9.78708000e-03
-4.97868000 9.86446000e-03
-4.94858000 9.94401000e-03
-4.91858000 1.00252700e-02
-4.88858000 1.01086900e-02
-4.85858000 1.01944300e-02
-4.82858000 1.02826400e-02
-4.79858000 1.03735300e-02
-4.76858000 1.04673800e-02
-4.73858000 1.05643900e-02
-4.70858000 1.06649100e-02
-4.67858000 1.07693000e-02
-4.64858000 1.08779900e-02
-4.61858000 1.09914500e-02
-4.58858000 1.11103300e-02
-4.55858000 1.12353000e-02
-4.52858000 1.13672400e-02
-4.49858000 1.15072500e-02
-4.46858000 1.16566300e-02
-4.43858000 1.18170700e-02
-4.40858000 1.19906900e-02
-4.37858000 1.21802400e-02
-4.34858000 1.23893900e-02
-4.31858000 1.26229500e-02
-4.28858000 1.28876700e-02
-4.25858000 1.31928800e-02
-4.22847000 1.35535500e-02
-4.19847000 1.39874600e-02
-4.16847000 1.45272700e-02
-4.13847000 1.52240500e-02
-4.10847000 1.61652500e-02
-4.07847000 1.75103300e-02
-4.04847000 1.95726000e-02
-4.01847000 2.30195100e-02
-3.98847000 2.93609600e-02
-3.95847000 4.16355000e-02
-3.92847000 5.93655100e-02
-3.89847000 5.93585400e-02
-3.86847000 4.36723100e-02
-3.83847000 3.45915000e-02
-3.80847000 3.23901600e-02
-3.77847000 3.54835800e-02
-3.74847000 4.54725800e-02
-3.71847000 6.66562400e-02
-3.68847000 8.83964000e-02
-3.65847000 7.34127800e-02
-3.62847000 4.93248200e-02
-3.59847000 3.68050600e-02
-3.56847000 3.22178200e-02
-3.53847000 3.16304400e-02
-3.50837000 2.90049600e-02
-3.47837000 2.47433600e-02
-3.44837000 2.21292100e-02
-3.41837000 2.07759400e-02
-3.38837000 2.00885800e-02
-3.35837000 1.97849100e-02
-3.32837000 1.97035400e-02
-3.29837000 1.96738500e-02
-3.26837000 1.97196800e-02
-3.23837000 1.98801800e-02
-3.20837000 2.01338300e-02
-3.17837000 2.04648200e-02
-3.14837000 2.08669800e-02
-3.11837000 2.13398700e-02
-3.08837000 2.18870200e-02
-3.05837000 2.25152800e-02
-3.02837000 2.32348400e-02
-2.99837000 2.40597000e-02
-2.96837000 2.50086200e-02
-2.93837000 2.61060200e-02
-2.90837000 2.73846800e-02
-2.87837000 2.88880800e-02
-2.84837000 3.06747600e-02
-2.81837000 3.28253000e-02
-2.78826000 3.54626400e-02
-2.75826000 3.87303400e-02
-2.72826000 4.28744800e-02
-2.69826000 4.82563000e-02
-2.66826000 5.54458000e-02
-2.63826000 6.53831000e-02
-2.60826000 7.97055000e-02
-2.57826000 1.01449700e-01
-2.54826000 1.36645400e-01
-2.51826000 1.97828800e-01
-2.48826000 3.11315200e-01
-2.45826000 5.11963600e-01
-2.42826000 7.73865400e-01
-2.39826000 9.86033000e-01
-2.36826000 7.70848800e-01
-2.33826000 4.47292600e-01
-2.30826000 2.67329400e-01
-2.27826000 1.76445400e-01
-2.24826000 1.27292000e-01
-2.21826000 9.85018000e-02
-2.18826000 8.04962000e-02
-2.15826000 6.86587000e-02
-2.12826000 6.05886000e-02
-2.09826000 5.49549000e-02
-2.06815000 5.09688000e-02
-2.03815000 4.81929000e-02
-2.00815000 4.63395000e-02
-1.97815000 4.52880000e-02
-1.94815000 4.50827000e-02
-1.91815000 4.59152000e-02
-1.88815000 4.71506000e-02
-1.85815000 4.70806000e-02
-1.82815000 4.75766000e-02
-1.79815000 5.02864000e-02
-1.76815000 5.65702000e-02
-1.73815000 6.66909000e-02
-1.70815000 6.87499000e-02
-1.67815000 6.04111000e-02
-1.64815000 5.51949000e-02
-1.61815000 5.39669000e-02
-1.58815000 5.53807000e-02
-1.55815000 5.78862000e-02
-1.52815000 5.95034000e-02
-1.49815000 6.00038000e-02
-1.46815000 5.97662800e-02
-1.43815000 6.06643500e-02
-1.40815000 6.26025600e-02
-1.37815000 6.52584000e-02
-1.34805000 6.85199300e-02
-1.31805000 7.23557300e-02
-1.28805000 7.68355400e-02
-1.25805000 8.20783600e-02
-1.22805000 8.82843900e-02
-1.19805000 9.57930100e-02
-1.16805000 1.05166360e-01
-1.13805000 1.17286660e-01
-1.10805000 1.33815100e-01
-1.07805000 1.55160800e-01
-1.04805000 1.77878500e-01
-1.01805000 1.88061400e-01
-0.98804800 1.96928000e-01
-0.95804800 2.16170700e-01
-0.92804800 2.43904200e-01
-0.89804800 2.82583700e-01
-0.86804800 3.38364600e-01
-0.83804800 4.19305600e-01
-0.80804800 5.30278300e-01
-0.77804800 6.45901100e-01
-0.74804800 7.81667300e-01
-0.71804800 1.01169390e+00
-0.68804800 1.39712890e+00
-0.65804800 2.08098090e+00
-0.62794200 3.39580680e+00
-0.59794200 6.02419780e+00
-0.56794200 1.02813628e+01
-0.53794200 1.11840683e+01
-0.50794200 7.01927670e+00
-0.47794200 3.92163290e+00
-0.44794200 2.35789140e+00
-0.41794200 1.54051400e+00
-0.38794200 1.08038720e+00
-0.35794200 8.05702200e-01
-0.32794200 6.35900700e-01
-0.29794200 5.32595100e-01
-0.26794200 4.62682200e-01
-0.23794200 3.86545500e-01
-0.20794200 3.24237100e-01
-0.17794200 2.85060800e-01
-0.14794200 2.65023800e-01
-0.11794200 2.64601900e-01
-0.08794220 2.77372200e-01
-0.05794220 2.71706300e-01
-0.02794220 2.72853100e-01
0.00205784 3.21730100e-01
0.03205780 4.36800000e-01
0.06205780 5.14825800e-01
0.09216390 3.97178200e-01
0.12216400 2.71252400e-01
0.15216400 2.01012700e-01
0.18216400 1.64083800e-01
0.21216400 1.43826100e-01
0.24216400 1.32414300e-01
0.27216400 1.26442500e-01
0.30216400 1.24567300e-01
0.33216400 1.26696500e-01
0.36216400 1.34040500e-01
0.39216400 1.49497600e-01
0.42216400 1.72784800e-01
0.45216400 1.90879000e-01
0.48216400 2.19003100e-01
0.51216400 2.74918100e-01
0.54216400 3.43200100e-01
0.57216400 4.55550000e-01
0.60216400 5.75123000e-01
0.63216400 5.77155000e-01
0.66216400 4.57021900e-01
0.69216400 3.39402700e-01
0.72216400 2.72853000e-01
0.75216400 2.47008500e-01
0.78216400 2.47397400e-01
