# E(MeV)  S_GAMTGAMT(Total=K0+2*K1) for Es275_DDPCX
-4.95610000 1.10105900e-02
-4.92610000 1.10587900e-02
-4.89610000 1.11073200e-02
-4.86610000 1.11562100e-02
-4.83610000 1.12054500e-02
-4.80610000 1.12550700e-02
-4.77610000 1.13050400e-02
-4.74610000 1.13554100e-02
-4.71610000 1.14061300e-02
-4.68610000 1.14572600e-02
-4.65610000 1.15087800e-02
-4.62610000 1.15607000e-02
-4.59610000 1.16130300e-02
-4.56610000 1.16657500e-02
-4.53610000 1.17189300e-02
-4.50610000 1.17725000e-02
-4.47610000 1.18265300e-02
-4.44610000 1.18809900e-02
-4.41610000 1.19359100e-02
-4.37926000 1.20039900e-02
-4.34926000 1.20599300e-02
-4.31926000 1.21163800e-02
-4.28926000 1.21733000e-02
-4.25926000 1.22307300e-02
-4.22926000 1.22886600e-02
-4.19926000 1.23471300e-02
-4.16926000 1.24061200e-02
-4.13926000 1.24656400e-02
-4.10926000 1.25257100e-02
-4.07926000 1.25863700e-02
-4.04926000 1.26475800e-02
-4.01926000 1.27093900e-02
-3.98926000 1.27718100e-02
-3.95926000 1.28348500e-02
-3.92926000 1.28985100e-02
-3.89926000 1.29628400e-02
-3.86926000 1.30278300e-02
-3.83926000 1.30935100e-02
-3.80242000 1.31751200e-02
-3.77242000 1.32423800e-02
-3.74242000 1.33104000e-02
-3.71242000 1.33792100e-02
-3.68242000 1.34487900e-02
-3.65242000 1.35192000e-02
-3.62242000 1.35904700e-02
-3.59242000 1.36626200e-02
-3.56242000 1.37356800e-02
-3.53242000 1.38096800e-02
-3.50242000 1.38846700e-02
-3.47242000 1.39606800e-02
-3.44242000 1.40377400e-02
-3.41242000 1.41159300e-02
-3.38242000 1.41953100e-02
-3.35242000 1.42759200e-02
-3.32242000 1.43578900e-02
-3.29242000 1.44413100e-02
-3.26242000 1.45263600e-02
-3.22559000 1.46337000e-02
-3.19559000 1.47239500e-02
-3.16559000 1.48146300e-02
-3.13559000 1.49038700e-02
-3.10559000 1.49953200e-02
-3.07559000 1.50898000e-02
-3.04559000 1.51870300e-02
-3.01559000 1.52869600e-02
-2.98559000 1.53898300e-02
-2.95559000 1.54960100e-02
-2.92559000 1.56062500e-02
-2.89559000 1.57202800e-02
-2.86559000 1.58350300e-02
-2.83559000 1.59526400e-02
-2.80559000 1.60759300e-02
-2.77559000 1.62052700e-02
-2.74559000 1.63410500e-02
-2.71559000 1.64840200e-02
-2.68559000 1.66352600e-02
-2.64875000 1.68344000e-02
-2.61875000 1.70098600e-02
-2.58875000 1.72000600e-02
-2.55875000 1.74087000e-02
-2.52875000 1.76414800e-02
-2.49875000 1.79075000e-02
-2.46875000 1.82197700e-02
-2.43875000 1.85727500e-02
-2.40875000 1.89400200e-02
-2.37875000 1.93818900e-02
-2.34875000 1.99540100e-02
-2.31875000 2.07094300e-02
-2.28875000 2.17453400e-02
-2.25875000 2.32440000e-02
-2.22875000 2.55469300e-02
-2.19875000 2.94069200e-02
-2.16875000 3.65797400e-02
-2.13875000 4.99939000e-02
-2.10875000 6.49970000e-02
-2.07191000 6.08799000e-02
-2.04191000 6.01051000e-02
-2.01191000 6.44045000e-02
-1.98191000 5.45346000e-02
-1.95191000 4.25475000e-02
-1.92191000 3.72398800e-02
-1.89191000 3.66705200e-02
-1.86191000 3.72912000e-02
-1.83191000 3.47543200e-02
-1.80191000 3.24495000e-02
-1.77191000 3.25373000e-02
-1.74191000 3.51398000e-02
-1.71191000 4.00516000e-02
-1.68191000 4.41794000e-02
-1.65191000 4.80643000e-02
-1.62191000 5.67064000e-02
-1.59191000 7.56331000e-02
-1.56191000 1.07475400e-01
-1.53191000 1.22505500e-01
-1.49508000 1.21719300e-01
-1.46508000 1.14540400e-01
-1.43508000 9.69042000e-02
-1.40508000 8.41034000e-02
-1.37508000 7.49713000e-02
-1.34508000 6.07515000e-02
-1.31508000 5.34090000e-02
-1.28508000 5.39681000e-02
-1.25508000 5.57689000e-02
-1.22508000 5.72224000e-02
-1.19508000 5.19303000e-02
-1.16508000 4.32345000e-02
-1.13508000 3.86360000e-02
-1.10508000 3.84456000e-02
-1.07508000 4.26073400e-02
-1.04508000 4.80161200e-02
-1.01508000 4.39984400e-02
-0.98507600 3.72811800e-02
-0.95507600 3.40894400e-02
-0.91824000 3.39641000e-02
-0.88824000 3.64091000e-02
-0.85824000 3.85188000e-02
-0.82824000 3.82082000e-02
-0.79824000 3.94905000e-02
-0.76824000 3.85422000e-02
-0.73824000 3.48725000e-02
-0.70824000 3.29014000e-02
-0.67824000 3.25613000e-02
-0.64824000 3.31903200e-02
-0.61824000 3.40454200e-02
-0.58824000 3.50826600e-02
-0.55824000 3.74892200e-02
-0.52824000 4.23073000e-02
-0.49824000 5.15172000e-02
-0.46824000 6.79592000e-02
-0.43824000 8.78321000e-02
-0.40824000 8.73339000e-02
-0.37824000 7.76362000e-02
-0.34140300 7.89681000e-02
-0.31140300 9.06142000e-02
-0.28140300 8.36780000e-02
-0.25140300 6.30982000e-02
-0.22140300 4.99126000e-02
-0.19140300 4.29199000e-02
-0.16140300 3.95615000e-02
-0.13140300 3.80045000e-02
-0.10140300 3.64966000e-02
-0.07140310 3.52922000e-02
-0.04140310 3.47760000e-02
-0.01140310 3.46517000e-02
0.01859690 3.49052000e-02
0.04859690 3.56011000e-02
0.07859690 3.60069000e-02
0.10859700 3.55754000e-02
0.13859700 3.53428000e-02
0.16859700 3.56057000e-02
0.19859700 3.62303000e-02
0.23543300 3.78375000e-02
0.26543300 4.03918000e-02
0.29543300 4.29531000e-02
0.32543300 4.22762000e-02
0.35543300 4.12788000e-02
0.38543300 4.15553000e-02
0.41543300 4.27117000e-02
0.44543300 4.42702000e-02
0.47543300 4.55012000e-02
0.50543300 4.69288000e-02
0.53543300 4.83880000e-02
0.56543300 4.91140000e-02
0.59543300 4.78585000e-02
0.62543300 4.69412000e-02
0.65543300 4.76300000e-02
0.68543300 5.03737000e-02
0.71543300 5.30408000e-02
0.74543300 5.11221000e-02
0.77543300 4.89796000e-02
