# E(MeV)  S_GAMTGAMT(K=0) for Es275_DDPCX
-4.95610000 3.74653000e-03
-4.92610000 3.76337000e-03
-4.89610000 3.78034000e-03
-4.86610000 3.79743000e-03
-4.83610000 3.81465000e-03
-4.80610000 3.83201000e-03
-4.77610000 3.84950000e-03
-4.74610000 3.86713000e-03
-4.71610000 3.88489000e-03
-4.68610000 3.90280000e-03
-4.65610000 3.92086000e-03
-4.62610000 3.93906000e-03
-4.59610000 3.95741000e-03
-4.56610000 3.97591000e-03
-4.53610000 3.99457000e-03
-4.50610000 4.01338000e-03
-4.47610000 4.03235000e-03
-4.44610000 4.05149000e-03
-4.41610000 4.07079000e-03
-4.37926000 4.09473000e-03
-4.34926000 4.11441000e-03
-4.31926000 4.13428000e-03
-4.28926000 4.15432000e-03
-4.25926000 4.17455000e-03
-4.22926000 4.19496000e-03
-4.19926000 4.21557000e-03
-4.16926000 4.23638000e-03
-4.13926000 4.25738000e-03
-4.10926000 4.27859000e-03
-4.07926000 4.30001000e-03
-4.04926000 4.32164000e-03
-4.01926000 4.34349000e-03
-3.98926000 4.36557000e-03
-3.95926000 4.38787000e-03
-3.92926000 4.41041000e-03
-3.89926000 4.43320000e-03
-3.86926000 4.45623000e-03
-3.83926000 4.47951000e-03
-3.80242000 4.50846000e-03
-3.77242000 4.53234000e-03
-3.74242000 4.55650000e-03
-3.71242000 4.58095000e-03
-3.68242000 4.60569000e-03
-3.65242000 4.63074000e-03
-3.62242000 4.65611000e-03
-3.59242000 4.68180000e-03
-3.56242000 4.70784000e-03
-3.53242000 4.73422000e-03
-3.50242000 4.76097000e-03
-3.47242000 4.78810000e-03
-3.44242000 4.81562000e-03
-3.41242000 4.84355000e-03
-3.38242000 4.87191000e-03
-3.35242000 4.90072000e-03
-3.32242000 4.93001000e-03
-3.29242000 4.95979000e-03
-3.26242000 4.99008000e-03
-3.22559000 5.02804000e-03
-3.19559000 5.05961000e-03
-3.16559000 5.09181000e-03
-3.13559000 5.12467000e-03
-3.10559000 5.15826000e-03
-3.07559000 5.19262000e-03
-3.04559000 5.22785000e-03
-3.01559000 5.26404000e-03
-2.98559000 5.30137000e-03
-2.95559000 5.34015000e-03
-2.92559000 5.38093000e-03
-2.89559000 5.42326000e-03
-2.86559000 5.46383000e-03
-2.83559000 5.50446000e-03
-2.80559000 5.54765000e-03
-2.77559000 5.59331000e-03
-2.74559000 5.64129000e-03
-2.71559000 5.69170000e-03
-2.68559000 5.74478000e-03
-2.64875000 5.81414000e-03
-2.61875000 5.87460000e-03
-2.58875000 5.93926000e-03
-2.55875000 6.00888000e-03
-2.52875000 6.08444000e-03
-2.49875000 6.16720000e-03
-2.46875000 6.25881000e-03
-2.43875000 6.36147000e-03
-2.40875000 6.47818000e-03
-2.37875000 6.61309000e-03
-2.34875000 6.77215000e-03
-2.31875000 6.96407000e-03
-2.28875000 7.20206000e-03
-2.25875000 7.50698000e-03
-2.22875000 7.91329000e-03
-2.19875000 8.48112000e-03
-2.16875000 9.32234000e-03
-2.13875000 1.06613000e-02
-2.10875000 1.29852000e-02
-2.07191000 1.89049000e-02
-2.04191000 2.85501000e-02
-2.01191000 3.72675000e-02
-1.98191000 3.06220000e-02
-1.95191000 2.17871000e-02
-1.92191000 1.81470000e-02
-1.89191000 1.81173000e-02
-1.86191000 1.85025000e-02
-1.83191000 1.56052000e-02
-1.80191000 1.29900000e-02
-1.77191000 1.18075000e-02
-1.74191000 1.15264000e-02
-1.71191000 1.18984000e-02
-1.68191000 1.29870000e-02
-1.65191000 1.48497000e-02
-1.62191000 1.66590000e-02
-1.59191000 1.89005000e-02
-1.56191000 2.40694000e-02
-1.53191000 3.51591000e-02
-1.49508000 5.82509000e-02
-1.46508000 5.99622000e-02
-1.43508000 4.74174000e-02
-1.40508000 4.51338000e-02
-1.37508000 4.32999000e-02
-1.34508000 3.14009000e-02
-1.31508000 2.22888000e-02
-1.28508000 1.76805000e-02
-1.25508000 1.55067000e-02
-1.22508000 1.44390000e-02
-1.19508000 1.36601000e-02
-1.16508000 1.35769000e-02
-1.13508000 1.45392000e-02
-1.10508000 1.71968000e-02
-1.07508000 2.28138000e-02
-1.04508000 2.89440000e-02
-1.01508000 2.51812000e-02
-0.98507600 1.83168000e-02
-0.95507600 1.44713000e-02
-0.91824000 1.22967000e-02
-0.88824000 1.14617000e-02
-0.85824000 1.10316000e-02
-0.82824000 1.08392000e-02
-0.79824000 1.08107000e-02
-0.76824000 1.09204000e-02
-0.73824000 1.11773000e-02
-0.70824000 1.16332000e-02
-0.67824000 1.24079000e-02
-0.64824000 1.35940000e-02
-0.61824000 1.46508000e-02
-0.58824000 1.56253000e-02
-0.55824000 1.77449000e-02
-0.52824000 2.20447000e-02
-0.49824000 3.04382000e-02
-0.46824000 4.56076000e-02
-0.43824000 6.34173000e-02
-0.40824000 5.93359000e-02
-0.37824000 4.28912000e-02
-0.34140300 2.70109000e-02
-0.31140300 2.04122000e-02
-0.28140300 1.70156000e-02
-0.25140300 1.52080000e-02
-0.22140300 1.42082000e-02
-0.19140300 1.36909000e-02
-0.16140300 1.36969000e-02
-0.13140300 1.39359000e-02
-0.10140300 1.33950000e-02
-0.07140310 1.26460000e-02
-0.04140310 1.22280000e-02
-0.01140310 1.20323000e-02
0.01859690 1.19606000e-02
0.04859690 1.19715000e-02
0.07859690 1.20195000e-02
0.10859700 1.20410000e-02
0.13859700 1.20802000e-02
0.16859700 1.21587000e-02
0.19859700 1.22693000e-02
0.23543300 1.24461000e-02
0.26543300 1.26306000e-02
0.29543300 1.28703000e-02
0.32543300 1.32016000e-02
0.35543300 1.36510000e-02
0.38543300 1.41781000e-02
0.41543300 1.49421000e-02
0.44543300 1.57266000e-02
0.47543300 1.64968000e-02
0.50543300 1.78018000e-02
0.53543300 1.78664000e-02
0.56543300 1.68620000e-02
0.59543300 1.65767000e-02
0.62543300 1.71292000e-02
0.65543300 1.86566000e-02
0.68543300 2.16779000e-02
0.71543300 2.41852000e-02
0.74543300 2.19379000e-02
0.77543300 1.92322000e-02
