# E(MeV)  S_GAMTGAMT(K=1) for Es285_DDPCX
-8.60300000 3.05973000e-03
-8.57300000 3.07091000e-03
-8.54300000 3.08214000e-03
-8.51300000 3.09343000e-03
-8.48300000 3.10477000e-03
-8.45300000 3.11617000e-03
-8.42300000 3.12763000e-03
-8.39300000 3.13915000e-03
-8.36300000 3.15073000e-03
-8.33300000 3.16236000e-03
-8.30300000 3.17406000e-03
-8.27300000 3.18582000e-03
-8.24300000 3.19764000e-03
-8.21300000 3.20953000e-03
-8.18300000 3.22148000e-03
-8.15300000 3.23349000e-03
-8.12300000 3.24557000e-03
-8.09300000 3.25772000e-03
-8.06300000 3.26993000e-03
-8.03300000 3.28221000e-03
-8.00300000 3.29456000e-03
-7.97300000 3.30698000e-03
-7.94300000 3.31947000e-03
-7.91300000 3.33204000e-03
-7.88300000 3.34467000e-03
-7.85300000 3.35738000e-03
-7.82300000 3.37016000e-03
-7.79300000 3.38302000e-03
-7.76300000 3.39596000e-03
-7.73300000 3.40898000e-03
-7.70300000 3.42208000e-03
-7.66147000 3.44036000e-03
-7.63147000 3.45369000e-03
-7.60147000 3.46715000e-03
-7.57147000 3.48065000e-03
-7.54147000 3.49412000e-03
-7.51147000 3.50771000e-03
-7.48147000 3.52144000e-03
-7.45147000 3.53534000e-03
-7.42147000 3.54942000e-03
-7.39147000 3.56376000e-03
-7.36147000 3.57856000e-03
-7.33147000 3.59328000e-03
-7.30147000 3.60687000e-03
-7.27147000 3.62046000e-03
-7.24147000 3.63452000e-03
-7.21147000 3.64889000e-03
-7.18147000 3.66348000e-03
-7.15147000 3.67827000e-03
-7.12147000 3.69326000e-03
-7.09147000 3.70852000e-03
-7.06147000 3.72420000e-03
-7.03147000 3.74050000e-03
-7.00147000 3.75713000e-03
-6.97147000 3.77402000e-03
-6.94147000 3.79315000e-03
-6.91147000 3.81405000e-03
-6.88147000 3.82815000e-03
-6.85147000 3.83795000e-03
-6.82147000 3.85016000e-03
-6.79147000 3.86427000e-03
-6.76147000 3.87935000e-03
-6.71995000 3.90105000e-03
-6.68995000 3.91709000e-03
-6.65995000 3.93334000e-03
-6.62995000 3.94978000e-03
-6.59995000 3.96638000e-03
-6.56995000 3.98313000e-03
-6.53995000 4.00005000e-03
-6.50995000 4.01711000e-03
-6.47995000 4.03435000e-03
-6.44995000 4.05177000e-03
-6.41995000 4.06942000e-03
-6.38995000 4.08741000e-03
-6.35995000 4.10587000e-03
-6.32995000 4.12438000e-03
-6.29995000 4.14183000e-03
-6.26995000 4.15926000e-03
-6.23995000 4.17720000e-03
-6.20995000 4.19550000e-03
-6.17995000 4.21407000e-03
-6.14995000 4.23286000e-03
-6.11995000 4.25186000e-03
-6.08995000 4.27109000e-03
-6.05995000 4.29055000e-03
-6.02995000 4.31030000e-03
-5.99995000 4.33041000e-03
-5.96995000 4.35105000e-03
-5.93995000 4.37258000e-03
-5.90995000 4.39575000e-03
-5.87995000 4.42077000e-03
-5.84995000 4.44236000e-03
-5.81995000 4.45972000e-03
-5.77842000 4.48729000e-03
-5.74842000 4.51052000e-03
-5.71842000 4.53738000e-03
-5.68842000 4.57039000e-03
-5.65842000 4.60920000e-03
-5.62842000 4.63474000e-03
-5.59842000 4.64900000e-03
-5.56842000 4.66101000e-03
-5.53842000 4.67225000e-03
-5.50842000 4.68809000e-03
-5.47842000 4.70728000e-03
-5.44842000 4.72856000e-03
-5.41842000 4.75124000e-03
-5.38842000 4.77502000e-03
-5.35842000 4.79985000e-03
-5.32842000 4.82596000e-03
-5.29842000 4.85367000e-03
-5.26842000 4.88336000e-03
-5.23842000 4.91743000e-03
-5.20842000 4.96115000e-03
-5.17842000 5.02183000e-03
-5.14842000 5.07992000e-03
-5.11842000 5.08485000e-03
-5.08842000 5.08503000e-03
-5.05842000 5.10004000e-03
-5.02842000 5.12045000e-03
-4.99842000 5.14737000e-03
-4.96842000 5.16497000e-03
-4.93842000 5.17976000e-03
-4.90842000 5.20068000e-03
-4.87842000 5.22513000e-03
-4.83689000 5.26236000e-03
-4.80689000 5.29093000e-03
-4.77689000 5.32049000e-03
-4.74689000 5.35092000e-03
-4.71689000 5.38215000e-03
-4.68689000 5.41411000e-03
-4.65689000 5.44681000e-03
-4.62689000 5.48026000e-03
-4.59689000 5.51451000e-03
-4.56689000 5.54959000e-03
-4.53689000 5.58554000e-03
-4.50689000 5.62245000e-03
-4.47689000 5.66049000e-03
-4.44689000 5.69985000e-03
-4.41689000 5.74075000e-03
-4.38689000 5.78353000e-03
-4.35689000 5.82880000e-03
-4.32689000 5.87717000e-03
-4.29689000 5.93008000e-03
-4.26689000 5.99177000e-03
-4.23689000 6.07037000e-03
-4.20689000 6.17002000e-03
-4.17689000 6.23924000e-03
-4.14689000 6.25170000e-03
-4.11689000 6.27785000e-03
-4.08689000 6.32948000e-03
-4.05689000 6.40079000e-03
-4.02689000 6.48985000e-03
-3.99689000 6.57057000e-03
-3.96689000 6.63588000e-03
-3.93689000 6.71502000e-03
-3.89537000 6.85929000e-03
-3.86537000 6.99171000e-03
-3.83537000 7.15562000e-03
-3.80537000 7.36482000e-03
-3.77537000 7.63229000e-03
-3.74537000 7.93424000e-03
-3.71537000 8.26595000e-03
-3.68537000 8.73012000e-03
-3.65537000 9.43360000e-03
-3.62537000 1.05299000e-02
-3.59537000 1.23332000e-02
-3.56537000 1.55488000e-02
-3.53537000 2.17806000e-02
-3.50537000 3.33999000e-02
-3.47537000 4.48281000e-02
-3.44537000 3.82462000e-02
-3.41537000 2.61744000e-02
-3.38537000 1.92335000e-02
-3.35537000 1.51895000e-02
-3.32537000 1.30058000e-02
-3.29537000 1.20724000e-02
-3.26537000 1.15113000e-02
-3.23537000 1.11423000e-02
-3.20537000 1.13876000e-02
-3.17537000 1.24211000e-02
-3.14537000 1.46224000e-02
-3.11537000 1.81025000e-02
-3.08537000 1.85982000e-02
-3.05537000 1.53714000e-02
-3.02537000 1.28407000e-02
-2.99537000 1.17084000e-02
-2.95384000 1.15484000e-02
-2.92384000 1.21710000e-02
-2.89384000 1.34708000e-02
-2.86384000 1.58414000e-02
-2.83384000 2.03568000e-02
-2.80384000 2.55430000e-02
-2.77384000 2.62637000e-02
-2.74384000 2.67479000e-02
-2.71384000 2.47909000e-02
-2.68384000 1.91174000e-02
-2.65384000 1.49910000e-02
-2.62384000 1.28134000e-02
-2.59384000 1.16655000e-02
-2.56384000 1.09791000e-02
-2.53384000 1.05686000e-02
-2.50384000 1.03103000e-02
-2.47384000 1.01506000e-02
-2.44384000 1.00775000e-02
-2.41384000 1.00673000e-02
-2.38384000 1.00998000e-02
-2.35384000 1.01550000e-02
-2.32384000 1.02368000e-02
-2.29384000 1.03501000e-02
-2.26384000 1.04955000e-02
-2.23384000 1.06762000e-02
-2.20384000 1.08992000e-02
-2.17384000 1.11786000e-02
-2.14384000 1.15389000e-02
-2.11384000 1.20219000e-02
-2.08384000 1.27059000e-02
-2.05384000 1.37472000e-02
-2.01231000 1.63892000e-02
-1.98231000 1.96499000e-02
-1.95231000 2.46299000e-02
-1.92231000 3.20945000e-02
-1.89231000 3.75734000e-02
-1.86231000 3.57518000e-02
-1.83231000 2.78132000e-02
-1.80231000 2.22849000e-02
-1.77231000 1.99319000e-02
-1.74231000 1.96135000e-02
-1.71231000 1.90174000e-02
-1.68231000 1.77032000e-02
-1.65231000 1.71141000e-02
-1.62231000 1.71147000e-02
-1.59231000 1.76474000e-02
-1.56231000 1.89182000e-02
-1.53231000 2.09373000e-02
-1.50231000 2.33580000e-02
-1.47231000 2.71375000e-02
-1.44231000 3.50630000e-02
-1.41231000 5.12990000e-02
-1.38231000 7.49794000e-02
-1.35231000 7.38994000e-02
-1.32231000 5.08650000e-02
-1.29231000 3.62595000e-02
-1.26231000 2.97747000e-02
-1.23231000 2.77665000e-02
-1.20231000 2.89625000e-02
-1.17231000 3.09992000e-02
-1.14231000 2.87372000e-02
-1.11231000 2.56397000e-02
-1.07078000 2.43757000e-02
-1.04078000 2.52028000e-02
-1.01078000 2.78938000e-02
-0.98078400 3.06292000e-02
-0.95078400 2.93523000e-02
-0.92078400 2.69177000e-02
-0.89078400 2.59463000e-02
-0.86078400 2.61695000e-02
-0.83078400 2.72178000e-02
-0.80078400 2.90783000e-02
-0.77078400 3.20708000e-02
-0.74078400 3.66474000e-02
-0.71078400 4.24433000e-02
-0.68078400 5.03437000e-02
-0.65078400 6.27195000e-02
-0.62078400 8.13277000e-02
-0.59078400 9.02092000e-02
-0.56078400 8.15036000e-02
-0.53078400 7.35231000e-02
-0.50078400 7.44779000e-02
-0.47078400 8.10278000e-02
-0.44078400 9.56084000e-02
-0.41078400 1.11228000e-01
-0.38078400 1.21000000e-01
-0.35078400 1.46399000e-01
-0.32078400 2.01369000e-01
-0.29078400 3.09576000e-01
-0.26078400 5.17256000e-01
-0.23078400 7.14086000e-01
-0.20078400 6.02355000e-01
-0.17078400 3.91216000e-01
-0.12925700 2.39953000e-01
-0.09925700 2.00262000e-01
-0.06925700 1.61233000e-01
-0.03925700 1.31057000e-01
-0.00925701 1.13248000e-01
0.02074300 1.00884000e-01
0.05074300 9.53119000e-02
0.08074300 9.57973000e-02
0.11074300 1.00409000e-01
0.14074300 1.04091000e-01
0.17074300 1.06897000e-01
0.20074300 1.14548000e-01
0.23074300 1.27770000e-01
0.26074300 1.47497000e-01
0.29074300 1.77269000e-01
0.32074300 2.22996000e-01
0.35074300 2.87116000e-01
0.38074300 3.58564000e-01
0.41074300 4.67572000e-01
0.44074300 6.72645000e-01
0.47074300 1.07001000e+00
0.50074300 1.86787000e+00
0.53074300 3.20897000e+00
0.56074300 3.66571000e+00
0.59074300 2.38959000e+00
0.62074300 1.36291000e+00
0.65074300 8.51622000e-01
0.68074300 6.06091000e-01
0.71074300 4.86359000e-01
0.74074300 4.01982000e-01
0.77074300 3.06915000e-01
