# E(MeV)  S_NSDRNSDR(K=1) for Es280_DDPCX
-7.62674000 -6.32422000e-01
-7.59674000 -8.03091000e-01
-7.56674000 -1.08039000e+00
-7.53674000 -1.55419000e+00
-7.50674000 -2.42341000e+00
-7.47674000 -4.14088000e+00
-7.44674000 -7.45368000e+00
-7.41674000 -1.08305000e+01
-7.38674000 -8.58119000e+00
-7.35674000 -4.82605000e+00
-7.32674000 -2.73547000e+00
-7.29674000 -1.68250000e+00
-7.26674000 -1.11285000e+00
-7.23674000 -7.77271000e-01
-7.20674000 -5.64663000e-01
-7.17674000 -4.21760000e-01
-7.14674000 -3.20984000e-01
-7.11674000 -2.47051000e-01
-7.08674000 -1.90988000e-01
-7.05674000 -1.47266000e-01
-7.02674000 -1.12334000e-01
-6.99674000 -8.38308000e-02
-6.96674000 -6.01388000e-02
-6.93674000 -4.01198000e-02
-6.90674000 -2.29547000e-02
-6.87674000 -8.04319000e-03
-6.84674000 5.06235000e-03
-6.81674000 1.66987000e-02
-6.78284000 2.83951000e-02
-6.75284000 3.76599000e-02
-6.72284000 4.60167000e-02
-6.69284000 5.34703000e-02
-6.66284000 5.99027000e-02
-6.63284000 6.55776000e-02
-6.60284000 7.22583000e-02
-6.57284000 7.96439000e-02
-6.54284000 8.62619000e-02
-6.51284000 9.22086000e-02
-6.48284000 9.77301000e-02
-6.45284000 1.02957000e-01
-6.42284000 1.07961000e-01
-6.39284000 1.12783000e-01
-6.36284000 1.17453000e-01
-6.33284000 1.21995000e-01
-6.30284000 1.26426000e-01
-6.27284000 1.30762000e-01
-6.24284000 1.35015000e-01
-6.21284000 1.39197000e-01
-6.18284000 1.43317000e-01
-6.15284000 1.47385000e-01
-6.12284000 1.51409000e-01
-6.09284000 1.55395000e-01
-6.06284000 1.59351000e-01
-6.03284000 1.63282000e-01
-6.00284000 1.67194000e-01
-5.97284000 1.71093000e-01
-5.93894000 1.75487000e-01
-5.90894000 1.79372000e-01
-5.87894000 1.83258000e-01
-5.84894000 1.87148000e-01
-5.81894000 1.91047000e-01
-5.78894000 1.94958000e-01
-5.75894000 1.98885000e-01
-5.72894000 2.02832000e-01
-5.69894000 2.06801000e-01
-5.66894000 2.10796000e-01
-5.63894000 2.14821000e-01
-5.60894000 2.18879000e-01
-5.57894000 2.22972000e-01
-5.54894000 2.27105000e-01
-5.51894000 2.31280000e-01
-5.48894000 2.35501000e-01
-5.45894000 2.39771000e-01
-5.42894000 2.44093000e-01
-5.39894000 2.48470000e-01
-5.36894000 2.52907000e-01
-5.33894000 2.57406000e-01
-5.30894000 2.61972000e-01
-5.27894000 2.66607000e-01
-5.24894000 2.71316000e-01
-5.21894000 2.76103000e-01
-5.18894000 2.80972000e-01
-5.15894000 2.85928000e-01
-5.12894000 2.90975000e-01
-5.09504000 2.96795000e-01
-5.06504000 3.02055000e-01
-5.03504000 3.07424000e-01
-5.00504000 3.12910000e-01
-4.97504000 3.18520000e-01
-4.94504000 3.24266000e-01
-4.91504000 3.30159000e-01
-4.88504000 3.36218000e-01
-4.85504000 3.42464000e-01
-4.82504000 3.48935000e-01
-4.79504000 3.55686000e-01
-4.76504000 3.62818000e-01
-4.73504000 3.70525000e-01
-4.70504000 3.79210000e-01
-4.67504000 3.89786000e-01
-4.64504000 4.04123000e-01
-4.61504000 4.22360000e-01
-4.58504000 4.30520000e-01
-4.55504000 4.27564000e-01
-4.52504000 4.28008000e-01
-4.49504000 4.32407000e-01
-4.46504000 4.38882000e-01
-4.43504000 4.46478000e-01
-4.40504000 4.54784000e-01
-4.37504000 4.63619000e-01
-4.34504000 4.72900000e-01
-4.31504000 4.82590000e-01
-4.28504000 4.92677000e-01
-4.25113000 5.04557000e-01
-4.22113000 5.15508000e-01
-4.19113000 5.26887000e-01
-4.16113000 5.38718000e-01
-4.13113000 5.51026000e-01
-4.10113000 5.63843000e-01
-4.07113000 5.77206000e-01
-4.04113000 5.91161000e-01
-4.01113000 6.05765000e-01
-3.98113000 6.21095000e-01
-3.95113000 6.37268000e-01
-3.92113000 6.54481000e-01
-3.89113000 6.73122000e-01
-3.86113000 6.93986000e-01
-3.83113000 7.17911000e-01
-3.80113000 7.40593000e-01
-3.77113000 7.57195000e-01
-3.74113000 7.75270000e-01
-3.71113000 7.96678000e-01
-3.68113000 8.20577000e-01
-3.65113000 8.46547000e-01
-3.62113000 8.74510000e-01
-3.59113000 9.04555000e-01
-3.56113000 9.36866000e-01
-3.53113000 9.71707000e-01
-3.50113000 1.00943000e+00
-3.47113000 1.05048000e+00
-3.44113000 1.09552000e+00
-3.40723000 1.15243000e+00
-3.37723000 1.20971000e+00
-3.34723000 1.27420000e+00
-3.31723000 1.34711000e+00
-3.28723000 1.43600000e+00
-3.25723000 1.54268000e+00
-3.22723000 1.65997000e+00
-3.19723000 1.76691000e+00
-3.16723000 1.86252000e+00
-3.13723000 1.99646000e+00
-3.10723000 2.19103000e+00
-3.07723000 2.46896000e+00
-3.04723000 2.84014000e+00
-3.01723000 3.19931000e+00
-2.98723000 3.46728000e+00
-2.95723000 3.90255000e+00
-2.92723000 4.65416000e+00
-2.89723000 5.90494000e+00
-2.86723000 8.10048000e+00
-2.83723000 1.22606000e+01
-2.80723000 1.97774000e+01
-2.77723000 2.58127000e+01
-2.74723000 2.09316000e+01
-2.71723000 1.56542000e+01
-2.68723000 1.45313000e+01
-2.65723000 1.66772000e+01
-2.62723000 2.18437000e+01
-2.59723000 3.28410000e+01
-2.56333000 5.37000000e+01
-2.53333000 5.80248000e+01
-2.50333000 4.65117000e+01
-2.47333000 3.10372000e+01
-2.44333000 1.96660000e+01
-2.41333000 1.37432000e+01
-2.38333000 1.07194000e+01
-2.35333000 9.13801000e+00
-2.32333000 8.34614000e+00
-2.29333000 8.04623000e+00
-2.26333000 8.10186000e+00
-2.23333000 8.45987000e+00
-2.20333000 9.12046000e+00
-2.17333000 1.01308000e+01
-2.14333000 1.15960000e+01
-2.11333000 1.37140000e+01
-2.08333000 1.68572000e+01
-2.05333000 2.17511000e+01
-2.02333000 2.96773000e+01
-1.99333000 4.18838000e+01
-1.96333000 5.91595000e+01
-1.93333000 8.25427000e+01
-1.90333000 1.19586000e+02
-1.87333000 1.76332000e+02
-1.84333000 2.32560000e+02
-1.81333000 2.06334000e+02
-1.78333000 1.60336000e+02
-1.75333000 1.60587000e+02
-1.71943000 1.47182000e+02
-1.68943000 9.46323000e+01
-1.65943000 5.79336000e+01
-1.62943000 3.84363000e+01
-1.59943000 2.78026000e+01
-1.56943000 2.15705000e+01
-1.53943000 1.77086000e+01
-1.50943000 1.52533000e+01
-1.47943000 1.37117000e+01
-1.44943000 1.28220000e+01
-1.41943000 1.24996000e+01
-1.38943000 1.27743000e+01
-1.35943000 1.38314000e+01
-1.32943000 1.61620000e+01
-1.29943000 2.07854000e+01
-1.26943000 2.77387000e+01
-1.23943000 3.06602000e+01
-1.20943000 3.16318000e+01
-1.17943000 3.90333000e+01
-1.14943000 5.36450000e+01
-1.11943000 7.27220000e+01
-1.08943000 9.58766000e+01
-1.05943000 1.10787000e+02
-1.02943000 1.05470000e+02
-0.99943200 1.05479000e+02
-0.96943200 9.32975000e+01
-0.93943200 6.05974000e+01
-0.90943200 3.88780000e+01
-0.87553200 2.65224000e+01
-0.84553200 2.07742000e+01
-0.81553200 1.74421000e+01
-0.78553200 1.56472000e+01
-0.75553200 1.48949000e+01
-0.72553200 1.48727000e+01
-0.69553200 1.58836000e+01
-0.66553200 1.85562000e+01
-0.63553200 2.36406000e+01
-0.60553200 2.77856000e+01
-0.57553200 2.68182000e+01
-0.54553200 2.80397000e+01
-0.51553200 3.10451000e+01
-0.48553200 3.02999000e+01
-0.45553200 3.05985000e+01
-0.42553200 3.55105000e+01
-0.39553200 4.67357000e+01
-0.36553200 5.93556000e+01
-0.33553200 6.07189000e+01
-0.30553200 5.86115000e+01
-0.27553200 6.43144000e+01
-0.24553200 8.14284000e+01
-0.21553200 1.15115000e+02
-0.18553200 1.78351000e+02
-0.15553200 3.01944000e+02
-0.12553200 4.99243000e+02
-0.09553150 5.74802000e+02
-0.06553150 4.22384000e+02
-0.03163080 2.40481000e+02
-0.00163077 1.57565000e+02
0.02836920 1.15818000e+02
0.05836920 9.66651000e+01
0.08836920 9.48954000e+01
0.11836900 1.03541000e+02
0.14836900 1.17606000e+02
0.17836900 1.46941000e+02
0.20836900 2.20033000e+02
0.23836900 3.40573000e+02
0.26836900 3.86876000e+02
0.29836900 2.88365000e+02
0.32836900 1.77328000e+02
0.35836900 1.09727000e+02
0.38836900 7.53217000e+01
0.41836900 5.85074000e+01
0.44836900 4.59162000e+01
0.47836900 3.45617000e+01
0.50836900 2.70045000e+01
0.53836900 2.21614000e+01
0.56836900 1.88893000e+01
0.59836900 1.65794000e+01
0.62836900 1.49099000e+01
0.65836900 1.36987000e+01
0.68836900 1.28375000e+01
0.71836900 1.22619000e+01
0.74836900 1.19357000e+01
0.77836900 1.18440000e+01
