# E(MeV)  S_GAMTGAMT(K=0) for Es280_DDPCX
-7.62674000 2.91683000e-03
-7.59674000 2.92791000e-03
-7.56674000 2.93903000e-03
-7.53674000 2.95018000e-03
-7.50674000 2.96138000e-03
-7.47674000 2.97261000e-03
-7.44674000 2.98388000e-03
-7.41674000 2.99519000e-03
-7.38674000 3.00655000e-03
-7.35674000 3.01795000e-03
-7.32674000 3.02940000e-03
-7.29674000 3.04089000e-03
-7.26674000 3.05243000e-03
-7.23674000 3.06401000e-03
-7.20674000 3.07565000e-03
-7.17674000 3.08734000e-03
-7.14674000 3.09908000e-03
-7.11674000 3.11086000e-03
-7.08674000 3.12271000e-03
-7.05674000 3.13460000e-03
-7.02674000 3.14655000e-03
-6.99674000 3.15856000e-03
-6.96674000 3.17062000e-03
-6.93674000 3.18274000e-03
-6.90674000 3.19491000e-03
-6.87674000 3.20715000e-03
-6.84674000 3.21944000e-03
-6.81674000 3.23179000e-03
-6.78284000 3.24583000e-03
-6.75284000 3.25831000e-03
-6.72284000 3.27085000e-03
-6.69284000 3.28346000e-03
-6.66284000 3.29613000e-03
-6.63284000 3.30885000e-03
-6.60284000 3.32161000e-03
-6.57284000 3.33440000e-03
-6.54284000 3.34717000e-03
-6.51284000 3.36002000e-03
-6.48284000 3.37324000e-03
-6.45284000 3.38659000e-03
-6.42284000 3.39993000e-03
-6.39284000 3.41329000e-03
-6.36284000 3.42669000e-03
-6.33284000 3.44016000e-03
-6.30284000 3.45370000e-03
-6.27284000 3.46731000e-03
-6.24284000 3.48100000e-03
-6.21284000 3.49477000e-03
-6.18284000 3.50861000e-03
-6.15284000 3.52253000e-03
-6.12284000 3.53653000e-03
-6.09284000 3.55062000e-03
-6.06284000 3.56479000e-03
-6.03284000 3.57904000e-03
-6.00284000 3.59337000e-03
-5.97284000 3.60780000e-03
-5.93894000 3.62420000e-03
-5.90894000 3.63881000e-03
-5.87894000 3.65351000e-03
-5.84894000 3.66829000e-03
-5.81894000 3.68317000e-03
-5.78894000 3.69815000e-03
-5.75894000 3.71321000e-03
-5.72894000 3.72837000e-03
-5.69894000 3.74363000e-03
-5.66894000 3.75898000e-03
-5.63894000 3.77443000e-03
-5.60894000 3.78998000e-03
-5.57894000 3.80563000e-03
-5.54894000 3.82138000e-03
-5.51894000 3.83723000e-03
-5.48894000 3.85319000e-03
-5.45894000 3.86925000e-03
-5.42894000 3.88542000e-03
-5.39894000 3.90169000e-03
-5.36894000 3.91807000e-03
-5.33894000 3.93457000e-03
-5.30894000 3.95117000e-03
-5.27894000 3.96789000e-03
-5.24894000 3.98472000e-03
-5.21894000 4.00167000e-03
-5.18894000 4.01873000e-03
-5.15894000 4.03591000e-03
-5.12894000 4.05321000e-03
-5.09504000 4.07290000e-03
-5.06504000 4.09046000e-03
-5.03504000 4.10815000e-03
-5.00504000 4.12596000e-03
-4.97504000 4.14389000e-03
-4.94504000 4.16196000e-03
-4.91504000 4.18015000e-03
-4.88504000 4.19848000e-03
-4.85504000 4.21694000e-03
-4.82504000 4.23554000e-03
-4.79504000 4.25428000e-03
-4.76504000 4.27317000e-03
-4.73504000 4.29221000e-03
-4.70504000 4.31139000e-03
-4.67504000 4.33065000e-03
-4.64504000 4.35005000e-03
-4.61504000 4.36962000e-03
-4.58504000 4.38935000e-03
-4.55504000 4.40923000e-03
-4.52504000 4.42926000e-03
-4.49504000 4.44945000e-03
-4.46504000 4.46980000e-03
-4.43504000 4.49031000e-03
-4.40504000 4.51098000e-03
-4.37504000 4.53182000e-03
-4.34504000 4.55281000e-03
-4.31504000 4.57398000e-03
-4.28504000 4.59532000e-03
-4.25113000 4.61963000e-03
-4.22113000 4.64134000e-03
-4.19113000 4.66322000e-03
-4.16113000 4.68529000e-03
-4.13113000 4.70753000e-03
-4.10113000 4.72996000e-03
-4.07113000 4.75258000e-03
-4.04113000 4.77538000e-03
-4.01113000 4.79838000e-03
-3.98113000 4.82158000e-03
-3.95113000 4.84497000e-03
-3.92113000 4.86856000e-03
-3.89113000 4.89236000e-03
-3.86113000 4.91637000e-03
-3.83113000 4.94059000e-03
-3.80113000 4.96502000e-03
-3.77113000 4.98967000e-03
-3.74113000 5.01454000e-03
-3.71113000 5.03964000e-03
-3.68113000 5.06498000e-03
-3.65113000 5.09055000e-03
-3.62113000 5.11638000e-03
-3.59113000 5.14248000e-03
-3.56113000 5.16889000e-03
-3.53113000 5.19568000e-03
-3.50113000 5.22302000e-03
-3.47113000 5.25090000e-03
-3.44113000 5.27823000e-03
-3.40723000 5.30854000e-03
-3.37723000 5.33599000e-03
-3.34723000 5.36377000e-03
-3.31723000 5.39183000e-03
-3.28723000 5.42030000e-03
-3.25723000 5.44914000e-03
-3.22723000 5.47831000e-03
-3.19723000 5.50781000e-03
-3.16723000 5.53763000e-03
-3.13723000 5.56777000e-03
-3.10723000 5.59824000e-03
-3.07723000 5.62904000e-03
-3.04723000 5.66019000e-03
-3.01723000 5.69168000e-03
-2.98723000 5.72354000e-03
-2.95723000 5.75578000e-03
-2.92723000 5.78841000e-03
-2.89723000 5.82147000e-03
-2.86723000 5.85497000e-03
-2.83723000 5.88893000e-03
-2.80723000 5.92337000e-03
-2.77723000 5.95841000e-03
-2.74723000 5.99425000e-03
-2.71723000 6.03123000e-03
-2.68723000 6.06953000e-03
-2.65723000 6.10708000e-03
-2.62723000 6.14332000e-03
-2.59723000 6.18099000e-03
-2.56333000 6.22575000e-03
-2.53333000 6.26733000e-03
-2.50333000 6.31114000e-03
-2.47333000 6.35802000e-03
-2.44333000 6.40949000e-03
-2.41333000 6.46841000e-03
-2.38333000 6.54049000e-03
-2.35333000 6.63810000e-03
-2.32333000 6.78940000e-03
-2.29333000 7.05005000e-03
-2.26333000 7.39742000e-03
-2.23333000 7.39650000e-03
-2.20333000 7.13249000e-03
-2.17333000 6.98443000e-03
-2.14333000 6.93850000e-03
-2.11333000 6.94296000e-03
-2.08333000 6.96579000e-03
-2.05333000 6.99112000e-03
-2.02333000 7.01497000e-03
-1.99333000 7.04850000e-03
-1.96333000 7.09300000e-03
-1.93333000 7.14403000e-03
-1.90333000 7.18549000e-03
-1.87333000 7.22217000e-03
-1.84333000 7.26443000e-03
-1.81333000 7.31104000e-03
-1.78333000 7.36034000e-03
-1.75333000 7.41154000e-03
-1.71943000 7.47127000e-03
-1.68943000 7.52562000e-03
-1.65943000 7.58133000e-03
-1.62943000 7.63841000e-03
-1.59943000 7.69691000e-03
-1.56943000 7.75692000e-03
-1.53943000 7.81853000e-03
-1.50943000 7.88190000e-03
-1.47943000 7.94721000e-03
-1.44943000 8.01470000e-03
-1.41943000 8.08466000e-03
-1.38943000 8.15751000e-03
-1.35943000 8.23375000e-03
-1.32943000 8.31410000e-03
-1.29943000 8.39951000e-03
-1.26943000 8.49133000e-03
-1.23943000 8.59150000e-03
-1.20943000 8.70288000e-03
-1.17943000 8.82985000e-03
-1.14943000 8.97936000e-03
-1.11943000 9.16302000e-03
-1.08943000 9.40120000e-03
-1.05943000 9.73204000e-03
-1.02943000 1.02325000e-02
-0.99943200 1.10702000e-02
-0.96943200 1.26270000e-02
-0.93943200 1.56120000e-02
-0.90943200 1.93026000e-02
-0.87553200 1.76108000e-02
-0.84553200 1.40707000e-02
-0.81553200 1.21205000e-02
-0.78553200 1.11860000e-02
-0.75553200 1.07260000e-02
-0.72553200 1.04963000e-02
-0.69553200 1.03881000e-02
-0.66553200 1.03497000e-02
-0.63553200 1.03541000e-02
-0.60553200 1.03868000e-02
-0.57553200 1.04390000e-02
-0.54553200 1.05057000e-02
-0.51553200 1.05834000e-02
-0.48553200 1.06701000e-02
-0.45553200 1.07645000e-02
-0.42553200 1.08657000e-02
-0.39553200 1.09731000e-02
-0.36553200 1.10869000e-02
-0.33553200 1.12072000e-02
-0.30553200 1.13342000e-02
-0.27553200 1.14651000e-02
-0.24553200 1.15996000e-02
-0.21553200 1.17417000e-02
-0.18553200 1.18929000e-02
-0.15553200 1.20527000e-02
-0.12553200 1.22216000e-02
-0.09553150 1.24029000e-02
-0.06553150 1.25995000e-02
-0.03163080 1.28456000e-02
-0.00163077 1.30929000e-02
0.02836920 1.33811000e-02
0.05836920 1.37339000e-02
0.08836920 1.41988000e-02
0.11836900 1.48610000e-02
0.14836900 1.57115000e-02
0.17836900 1.64239000e-02
0.20836900 1.74397000e-02
0.23836900 1.95688000e-02
0.26836900 2.35484000e-02
0.29836900 2.76533000e-02
0.32836900 2.73722000e-02
0.35836900 2.80622000e-02
0.38836900 2.99870000e-02
0.41836900 2.65722000e-02
0.44836900 2.24315000e-02
0.47836900 2.05236000e-02
0.50836900 2.00989000e-02
0.53836900 1.97014000e-02
0.56836900 1.88974000e-02
0.59836900 1.84542000e-02
0.62836900 1.83450000e-02
0.65836900 1.84198000e-02
0.68836900 1.86018000e-02
0.71836900 1.88550000e-02
0.74836900 1.91625000e-02
0.77836900 1.95167000e-02
