# E(MeV)  S_GAMTGAMT(K=0) for Es282_DDPCX
-9.23044000 2.50002000e-03
-9.20044000 2.51486000e-03
-9.17044000 2.52709000e-03
-9.14044000 2.53801000e-03
-9.11044000 2.54832000e-03
-9.08044000 2.55833000e-03
-9.05044000 2.56819000e-03
-9.02044000 2.57796000e-03
-8.99044000 2.58768000e-03
-8.96044000 2.59738000e-03
-8.93044000 2.60706000e-03
-8.90044000 2.61674000e-03
-8.87044000 2.62643000e-03
-8.84044000 2.63612000e-03
-8.81044000 2.64583000e-03
-8.78044000 2.65555000e-03
-8.75044000 2.66529000e-03
-8.72044000 2.67504000e-03
-8.69044000 2.68482000e-03
-8.66044000 2.69462000e-03
-8.63044000 2.70445000e-03
-8.60044000 2.71430000e-03
-8.57044000 2.72417000e-03
-8.54044000 2.73408000e-03
-8.51044000 2.74401000e-03
-8.48044000 2.75397000e-03
-8.45044000 2.76396000e-03
-8.42044000 2.77398000e-03
-8.39044000 2.78404000e-03
-8.36044000 2.79413000e-03
-8.33044000 2.80425000e-03
-8.30044000 2.81440000e-03
-8.27044000 2.82460000e-03
-8.22617000 2.83970000e-03
-8.19617000 2.84999000e-03
-8.16617000 2.86031000e-03
-8.13617000 2.87067000e-03
-8.10617000 2.88106000e-03
-8.07617000 2.89150000e-03
-8.04617000 2.90198000e-03
-8.01617000 2.91251000e-03
-7.98617000 2.92307000e-03
-7.95617000 2.93368000e-03
-7.92617000 2.94433000e-03
-7.89617000 2.95502000e-03
-7.86617000 2.96576000e-03
-7.83617000 2.97654000e-03
-7.80617000 2.98737000e-03
-7.77617000 2.99825000e-03
-7.74617000 3.00917000e-03
-7.71617000 3.02013000e-03
-7.68617000 3.03113000e-03
-7.65617000 3.04218000e-03
-7.62617000 3.05325000e-03
-7.59617000 3.06434000e-03
-7.56617000 3.07540000e-03
-7.53617000 3.08637000e-03
-7.50617000 3.09707000e-03
-7.47617000 3.10761000e-03
-7.44617000 3.11925000e-03
-7.41617000 3.13163000e-03
-7.38617000 3.14373000e-03
-7.35617000 3.15562000e-03
-7.32617000 3.16744000e-03
-7.29617000 3.17926000e-03
-7.26617000 3.19110000e-03
-7.22190000 3.20866000e-03
-7.19190000 3.22062000e-03
-7.16190000 3.23264000e-03
-7.13190000 3.24472000e-03
-7.10190000 3.25685000e-03
-7.07190000 3.26905000e-03
-7.04190000 3.28131000e-03
-7.01190000 3.29364000e-03
-6.98190000 3.30603000e-03
-6.95190000 3.31849000e-03
-6.92190000 3.33101000e-03
-6.89190000 3.34360000e-03
-6.86190000 3.35626000e-03
-6.83190000 3.36899000e-03
-6.80190000 3.38179000e-03
-6.77190000 3.39466000e-03
-6.74190000 3.40761000e-03
-6.71190000 3.42062000e-03
-6.68190000 3.43371000e-03
-6.65190000 3.44687000e-03
-6.62190000 3.46011000e-03
-6.59190000 3.47342000e-03
-6.56190000 3.48681000e-03
-6.53190000 3.50028000e-03
-6.50190000 3.51382000e-03
-6.47190000 3.52745000e-03
-6.44190000 3.54115000e-03
-6.41190000 3.55494000e-03
-6.38190000 3.56881000e-03
-6.35190000 3.58276000e-03
-6.32190000 3.59679000e-03
-6.29190000 3.61091000e-03
-6.26190000 3.62511000e-03
-6.21763000 3.64623000e-03
-6.18763000 3.66065000e-03
-6.15763000 3.67516000e-03
-6.12763000 3.68976000e-03
-6.09763000 3.70445000e-03
-6.06763000 3.71923000e-03
-6.03763000 3.73410000e-03
-6.00763000 3.74907000e-03
-5.97763000 3.76414000e-03
-5.94763000 3.77929000e-03
-5.91763000 3.79455000e-03
-5.88763000 3.80990000e-03
-5.85763000 3.82536000e-03
-5.82763000 3.84091000e-03
-5.79763000 3.85657000e-03
-5.76763000 3.87232000e-03
-5.73763000 3.88819000e-03
-5.70763000 3.90415000e-03
-5.67763000 3.92023000e-03
-5.64763000 3.93641000e-03
-5.61763000 3.95270000e-03
-5.58763000 3.96909000e-03
-5.55763000 3.98560000e-03
-5.52763000 4.00223000e-03
-5.49763000 4.01896000e-03
-5.46763000 4.03581000e-03
-5.43763000 4.05278000e-03
-5.40763000 4.06987000e-03
-5.37763000 4.08707000e-03
-5.34763000 4.10440000e-03
-5.31763000 4.12185000e-03
-5.28763000 4.13942000e-03
-5.25763000 4.15711000e-03
-5.21335000 4.18346000e-03
-5.18335000 4.20147000e-03
-5.15335000 4.21962000e-03
-5.12335000 4.23789000e-03
-5.09335000 4.25630000e-03
-5.06335000 4.27485000e-03
-5.03335000 4.29353000e-03
-5.00335000 4.31235000e-03
-4.97335000 4.33132000e-03
-4.94335000 4.35042000e-03
-4.91335000 4.36967000e-03
-4.88335000 4.38907000e-03
-4.85335000 4.40862000e-03
-4.82335000 4.42831000e-03
-4.79335000 4.44817000e-03
-4.76335000 4.46817000e-03
-4.73335000 4.48834000e-03
-4.70335000 4.50867000e-03
-4.67335000 4.52916000e-03
-4.64335000 4.54982000e-03
-4.61335000 4.57065000e-03
-4.58335000 4.59166000e-03
-4.55335000 4.61286000e-03
-4.52335000 4.63427000e-03
-4.49335000 4.65589000e-03
-4.46335000 4.67779000e-03
-4.43335000 4.70006000e-03
-4.40335000 4.72292000e-03
-4.37335000 4.74659000e-03
-4.34335000 4.76986000e-03
-4.31335000 4.79126000e-03
-4.28335000 4.81295000e-03
-4.25335000 4.83549000e-03
-4.20908000 4.86980000e-03
-4.17908000 4.89364000e-03
-4.14908000 4.91804000e-03
-4.11908000 4.94322000e-03
-4.08908000 4.96971000e-03
-4.05908000 4.99873000e-03
-4.02908000 5.03224000e-03
-3.99908000 5.06621000e-03
-3.96908000 5.08708000e-03
-3.93908000 5.10676000e-03
-3.90908000 5.13136000e-03
-3.87908000 5.15222000e-03
-3.84908000 5.17208000e-03
-3.81908000 5.19475000e-03
-3.78908000 5.21929000e-03
-3.75908000 5.24488000e-03
-3.72908000 5.27113000e-03
-3.69908000 5.29787000e-03
-3.66908000 5.32502000e-03
-3.63908000 5.35254000e-03
-3.60908000 5.38039000e-03
-3.57908000 5.40858000e-03
-3.54908000 5.43710000e-03
-3.51908000 5.46595000e-03
-3.48908000 5.49514000e-03
-3.45908000 5.52467000e-03
-3.42908000 5.55456000e-03
-3.39908000 5.58480000e-03
-3.36908000 5.61543000e-03
-3.33908000 5.64646000e-03
-3.30908000 5.67790000e-03
-3.27908000 5.70980000e-03
-3.24908000 5.74220000e-03
-3.20481000 5.79111000e-03
-3.17481000 5.82522000e-03
-3.14481000 5.86031000e-03
-3.11481000 5.89587000e-03
-3.08481000 5.93228000e-03
-3.05481000 5.97049000e-03
-3.02481000 6.00747000e-03
-2.99481000 6.04359000e-03
-2.96481000 6.08264000e-03
-2.93481000 6.12593000e-03
-2.90481000 6.17430000e-03
-2.87481000 6.22029000e-03
-2.84481000 6.25814000e-03
-2.81481000 6.30012000e-03
-2.78481000 6.34925000e-03
-2.75481000 6.40575000e-03
-2.72481000 6.47160000e-03
-2.69481000 6.55125000e-03
-2.66481000 6.65342000e-03
-2.63481000 6.79553000e-03
-2.60481000 7.01496000e-03
-2.57481000 7.39663000e-03
-2.54481000 8.11651000e-03
-2.51481000 9.19802000e-03
-2.48481000 9.32236000e-03
-2.45481000 8.37261000e-03
-2.42481000 7.77151000e-03
-2.39481000 7.55392000e-03
-2.36481000 7.42289000e-03
-2.33481000 7.29431000e-03
-2.30481000 7.25552000e-03
-2.27481000 7.28207000e-03
-2.24481000 7.27361000e-03
-2.20054000 7.23671000e-03
-2.17054000 7.24885000e-03
-2.14054000 7.28149000e-03
-2.11054000 7.32564000e-03
-2.08054000 7.36269000e-03
-2.05054000 7.39604000e-03
-2.02054000 7.43636000e-03
-1.99054000 7.48218000e-03
-1.96054000 7.53153000e-03
-1.93054000 7.58343000e-03
-1.90054000 7.63745000e-03
-1.87054000 7.69337000e-03
-1.84054000 7.75108000e-03
-1.81054000 7.81057000e-03
-1.78054000 7.87186000e-03
-1.75054000 7.93502000e-03
-1.72054000 8.00013000e-03
-1.69054000 8.06733000e-03
-1.66054000 8.13678000e-03
-1.63054000 8.20869000e-03
-1.60054000 8.28331000e-03
-1.57054000 8.36094000e-03
-1.54054000 8.44198000e-03
-1.51054000 8.52690000e-03
-1.48054000 8.61630000e-03
-1.45054000 8.71094000e-03
-1.42054000 8.81181000e-03
-1.39054000 8.92015000e-03
-1.36054000 9.03765000e-03
-1.33054000 9.16655000e-03
-1.30054000 9.30990000e-03
-1.27054000 9.47198000e-03
-1.24054000 9.65891000e-03
-1.19627000 1.00003000e-02
-1.16627000 1.02981000e-02
-1.13627000 1.06796000e-02
-1.10627000 1.11904000e-02
-1.07627000 1.19119000e-02
-1.04627000 1.29988000e-02
-1.01627000 1.47682000e-02
-0.98627200 1.79222000e-02
-0.95627200 2.40526000e-02
-0.92627200 3.56533000e-02
-0.89627200 4.65745000e-02
-0.86627200 3.82082000e-02
-0.83627200 2.59053000e-02
-0.80627200 1.92247000e-02
-0.77627200 1.59140000e-02
-0.74627200 1.41721000e-02
-0.71627200 1.31942000e-02
-0.68627200 1.26207000e-02
-0.65627200 1.22786000e-02
-0.62627200 1.20783000e-02
-0.59627200 1.19702000e-02
-0.56627200 1.19256000e-02
-0.53627200 1.19271000e-02
-0.50627200 1.19646000e-02
-0.47627200 1.20325000e-02
-0.44627200 1.21248000e-02
-0.41627200 1.22297000e-02
-0.38627200 1.23555000e-02
-0.35627200 1.25125000e-02
-0.32627200 1.27091000e-02
-0.29627200 1.29651000e-02
-0.26627200 1.33250000e-02
-0.23627200 1.38907000e-02
-0.19200100 1.55846000e-02
-0.16200100 1.70524000e-02
-0.13200100 1.66065000e-02
-0.10200100 1.54259000e-02
-0.07200080 1.48502000e-02
-0.04200080 1.46961000e-02
-0.01200080 1.47679000e-02
0.01799920 1.49928000e-02
0.04799920 1.53648000e-02
0.07799920 1.57436000e-02
0.10799900 1.60311000e-02
0.13799900 1.65396000e-02
0.16799900 1.70611000e-02
0.19799900 1.71810000e-02
0.22799900 1.75028000e-02
0.25799900 1.82111000e-02
0.28799900 1.85557000e-02
0.31799900 1.84113000e-02
0.34799900 1.85524000e-02
0.37799900 1.90196000e-02
0.40799900 1.94501000e-02
0.43799900 1.97038000e-02
0.46799900 2.01063000e-02
0.49799900 2.06958000e-02
0.52799900 2.14598000e-02
0.55799900 2.24349000e-02
0.58799900 2.36564000e-02
0.61799900 2.49119000e-02
0.64799900 2.62093000e-02
0.67799900 2.79659000e-02
0.70799900 3.04689000e-02
0.73799900 3.41089000e-02
0.76799900 3.91162000e-02
