# E(MeV)  S_GAMTGAMT(Total=K0+2*K1) for Es280_DDPCX
-7.62674000 8.77875000e-03
-7.59674000 8.81243000e-03
-7.56674000 8.84621000e-03
-7.53674000 8.88012000e-03
-7.50674000 8.91418000e-03
-7.47674000 8.94833000e-03
-7.44674000 8.98262000e-03
-7.41674000 9.01705000e-03
-7.38674000 9.05161000e-03
-7.35674000 9.08631000e-03
-7.32674000 9.12116000e-03
-7.29674000 9.15617000e-03
-7.26674000 9.19131000e-03
-7.23674000 9.22659000e-03
-7.20674000 9.26205000e-03
-7.17674000 9.29768000e-03
-7.14674000 9.33344000e-03
-7.11674000 9.36938000e-03
-7.08674000 9.40549000e-03
-7.05674000 9.44176000e-03
-7.02674000 9.47821000e-03
-6.99674000 9.51484000e-03
-6.96674000 9.55166000e-03
-6.93674000 9.58864000e-03
-6.90674000 9.62581000e-03
-6.87674000 9.66317000e-03
-6.84674000 9.70070000e-03
-6.81674000 9.73845000e-03
-6.78284000 9.78133000e-03
-6.75284000 9.81947000e-03
-6.72284000 9.85783000e-03
-6.69284000 9.89638000e-03
-6.66284000 9.93513000e-03
-6.63284000 9.97405000e-03
-6.60284000 1.00131300e-02
-6.57284000 1.00523200e-02
-6.54284000 1.00915500e-02
-6.51284000 1.01310400e-02
-6.48284000 1.01714400e-02
-6.45284000 1.02121900e-02
-6.42284000 1.02529700e-02
-6.39284000 1.02938900e-02
-6.36284000 1.03349500e-02
-6.33284000 1.03762400e-02
-6.30284000 1.04177800e-02
-6.27284000 1.04595300e-02
-6.24284000 1.05015400e-02
-6.21284000 1.05437900e-02
-6.18284000 1.05862900e-02
-6.15284000 1.06290700e-02
-6.12284000 1.06720900e-02
-6.09284000 1.07153800e-02
-6.06284000 1.07589300e-02
-6.03284000 1.08027600e-02
-6.00284000 1.08468700e-02
-5.97284000 1.08912600e-02
-5.93894000 1.09417600e-02
-5.90894000 1.09867500e-02
-5.87894000 1.10320300e-02
-5.84894000 1.10775900e-02
-5.81894000 1.11234500e-02
-5.78894000 1.11696300e-02
-5.75894000 1.12161100e-02
-5.72894000 1.12628900e-02
-5.69894000 1.13099900e-02
-5.66894000 1.13574000e-02
-5.63894000 1.14051300e-02
-5.60894000 1.14532000e-02
-5.57894000 1.15015900e-02
-5.54894000 1.15503000e-02
-5.51894000 1.15993500e-02
-5.48894000 1.16487700e-02
-5.45894000 1.16985100e-02
-5.42894000 1.17486000e-02
-5.39894000 1.17990500e-02
-5.36894000 1.18498500e-02
-5.33894000 1.19010300e-02
-5.30894000 1.19525700e-02
-5.27894000 1.20044700e-02
-5.24894000 1.20567800e-02
-5.21894000 1.21094500e-02
-5.18894000 1.21625100e-02
-5.15894000 1.22159700e-02
-5.12894000 1.22698300e-02
-5.09504000 1.23311600e-02
-5.06504000 1.23859000e-02
-5.03504000 1.24410300e-02
-5.00504000 1.24966000e-02
-4.97504000 1.25525900e-02
-4.94504000 1.26090200e-02
-4.91504000 1.26658700e-02
-4.88504000 1.27231800e-02
-4.85504000 1.27809400e-02
-4.82504000 1.28391800e-02
-4.79504000 1.28978800e-02
-4.76504000 1.29570700e-02
-4.73504000 1.30167700e-02
-4.70504000 1.30769300e-02
-4.67504000 1.31374700e-02
-4.64504000 1.31984900e-02
-4.61504000 1.32600600e-02
-4.58504000 1.33221700e-02
-4.55504000 1.33847900e-02
-4.52504000 1.34479400e-02
-4.49504000 1.35116300e-02
-4.46504000 1.35758800e-02
-4.43504000 1.36406900e-02
-4.40504000 1.37060400e-02
-4.37504000 1.37719800e-02
-4.34504000 1.38384700e-02
-4.31504000 1.39055600e-02
-4.28504000 1.39732600e-02
-4.25113000 1.40504700e-02
-4.22113000 1.41194800e-02
-4.19113000 1.41891000e-02
-4.16113000 1.42593500e-02
-4.13113000 1.43302500e-02
-4.10113000 1.44018200e-02
-4.07113000 1.44740600e-02
-4.04113000 1.45469600e-02
-4.01113000 1.46205600e-02
-3.98113000 1.46948800e-02
-3.95113000 1.47698900e-02
-3.92113000 1.48456400e-02
-3.89113000 1.49221400e-02
-3.86113000 1.49993900e-02
-3.83113000 1.50774300e-02
-3.80113000 1.51562200e-02
-3.77113000 1.52358300e-02
-3.74113000 1.53162600e-02
-3.71113000 1.53975200e-02
-3.68113000 1.54796600e-02
-3.65113000 1.55626900e-02
-3.62113000 1.56466600e-02
-3.59113000 1.57316400e-02
-3.56113000 1.58177700e-02
-3.53113000 1.59053200e-02
-3.50113000 1.59948800e-02
-3.47113000 1.60863600e-02
-3.44113000 1.61758100e-02
-3.40723000 1.62751200e-02
-3.37723000 1.63653300e-02
-3.34723000 1.64567500e-02
-3.31723000 1.65493300e-02
-3.28723000 1.66434400e-02
-3.25723000 1.67389400e-02
-3.22723000 1.68357100e-02
-3.19723000 1.69337100e-02
-3.16723000 1.70329700e-02
-3.13723000 1.71334500e-02
-3.10723000 1.72352200e-02
-3.07723000 1.73382800e-02
-3.04723000 1.74426900e-02
-3.01723000 1.75484400e-02
-2.98723000 1.76556000e-02
-2.95723000 1.77642200e-02
-2.92723000 1.78743300e-02
-2.89723000 1.79860500e-02
-2.86723000 1.80994100e-02
-2.83723000 1.82145300e-02
-2.80723000 1.83314900e-02
-2.77723000 1.84507100e-02
-2.74723000 1.85723700e-02
-2.71723000 1.86959700e-02
-2.68723000 1.88224100e-02
-2.65723000 1.89487400e-02
-2.62723000 1.90736800e-02
-2.59723000 1.92018900e-02
-2.56333000 1.93515900e-02
-2.53333000 1.94883100e-02
-2.50333000 1.96293800e-02
-2.47333000 1.97757600e-02
-2.44333000 1.99293100e-02
-2.41333000 2.00934700e-02
-2.38333000 2.02751300e-02
-2.35333000 2.04891600e-02
-2.32333000 2.07693000e-02
-2.29333000 2.11821700e-02
-2.26333000 2.17002200e-02
-2.23333000 2.18033200e-02
-2.20333000 2.15952900e-02
-2.17333000 2.15281100e-02
-2.14333000 2.15848200e-02
-2.11333000 2.17037800e-02
-2.08333000 2.18478700e-02
-2.05333000 2.19997400e-02
-2.02333000 2.21552300e-02
-1.99333000 2.23265200e-02
-1.96333000 2.25168800e-02
-1.93333000 2.27156900e-02
-1.90333000 2.28976500e-02
-1.87333000 2.30729500e-02
-1.84333000 2.32598300e-02
-1.81333000 2.34586400e-02
-1.78333000 2.36664200e-02
-1.75333000 2.38816200e-02
-1.71943000 2.41331500e-02
-1.68943000 2.43630800e-02
-1.65943000 2.46000900e-02
-1.62943000 2.48445900e-02
-1.59943000 2.50969900e-02
-1.56943000 2.53579000e-02
-1.53943000 2.56279700e-02
-1.50943000 2.59080400e-02
-1.47943000 2.61991100e-02
-1.44943000 2.65023800e-02
-1.41943000 2.68192800e-02
-1.38943000 2.71517100e-02
-1.35943000 2.75019700e-02
-1.32943000 2.78731000e-02
-1.29943000 2.82691700e-02
-1.26943000 2.86957300e-02
-1.23943000 2.91603000e-02
-1.20943000 2.96744800e-02
-1.17943000 3.02548500e-02
-1.14943000 3.09281600e-02
-1.11943000 3.17380200e-02
-1.08943000 3.27612000e-02
-1.05943000 3.41400400e-02
-1.02943000 3.61609000e-02
-0.99943200 3.94438000e-02
-0.96943200 4.54070000e-02
-0.93943200 5.66776000e-02
-0.90943200 7.05168000e-02
-0.87553200 6.44628000e-02
-0.84553200 5.16955000e-02
-0.81553200 4.48315000e-02
-0.78553200 4.17374000e-02
-0.75553200 4.04246000e-02
-0.72553200 3.99985000e-02
-0.69553200 4.00643000e-02
-0.66553200 4.04367000e-02
-0.63553200 4.10241000e-02
-0.60553200 4.17808000e-02
-0.57553200 4.26846000e-02
-0.54553200 4.37283000e-02
-0.51553200 4.49138000e-02
-0.48553200 4.62505000e-02
-0.45553200 4.77551000e-02
-0.42553200 4.94511000e-02
-0.39553200 5.13713000e-02
-0.36553200 5.35603000e-02
-0.33553200 5.60762000e-02
-0.30553200 5.89906000e-02
-0.27553200 6.24203000e-02
-0.24553200 6.65470000e-02
-0.21553200 7.15761000e-02
-0.18553200 7.77737000e-02
-0.15553200 8.57933000e-02
-0.12553200 9.57516000e-02
-0.09553150 1.08079100e-01
-0.06553150 1.25778300e-01
-0.03163080 1.55921200e-01
-0.00163077 1.91896900e-01
0.02836920 2.49209100e-01
0.05836920 3.60911900e-01
0.08836920 5.69332800e-01
0.11836900 7.70405000e-01
0.14836900 6.71793500e-01
0.17836900 5.45555900e-01
0.20836900 5.69505700e-01
0.23836900 7.42804800e-01
0.26836900 9.88474400e-01
0.29836900 1.07949130e+00
0.32836900 1.14174420e+00
0.35836900 1.28505420e+00
0.38836900 1.33069100e+00
0.41836900 1.38976620e+00
0.44836900 1.29478950e+00
0.47836900 1.18282960e+00
0.50836900 1.08919490e+00
0.53836900 1.07147940e+00
0.56836900 1.31980940e+00
0.59836900 1.62084420e+00
0.62836900 1.33354700e+00
0.65836900 8.29521800e-01
0.68836900 5.24729800e-01
0.71836900 3.61047000e-01
0.74836900 2.71200500e-01
0.77836900 2.18767100e-01
