# E(MeV)  S_GAMTGAMT(K=1) for Es280_DDPCX
-7.62674000 2.93096000e-03
-7.59674000 2.94226000e-03
-7.56674000 2.95359000e-03
-7.53674000 2.96497000e-03
-7.50674000 2.97640000e-03
-7.47674000 2.98786000e-03
-7.44674000 2.99937000e-03
-7.41674000 3.01093000e-03
-7.38674000 3.02253000e-03
-7.35674000 3.03418000e-03
-7.32674000 3.04588000e-03
-7.29674000 3.05764000e-03
-7.26674000 3.06944000e-03
-7.23674000 3.08129000e-03
-7.20674000 3.09320000e-03
-7.17674000 3.10517000e-03
-7.14674000 3.11718000e-03
-7.11674000 3.12926000e-03
-7.08674000 3.14139000e-03
-7.05674000 3.15358000e-03
-7.02674000 3.16583000e-03
-6.99674000 3.17814000e-03
-6.96674000 3.19052000e-03
-6.93674000 3.20295000e-03
-6.90674000 3.21545000e-03
-6.87674000 3.22801000e-03
-6.84674000 3.24063000e-03
-6.81674000 3.25333000e-03
-6.78284000 3.26775000e-03
-6.75284000 3.28058000e-03
-6.72284000 3.29349000e-03
-6.69284000 3.30646000e-03
-6.66284000 3.31950000e-03
-6.63284000 3.33260000e-03
-6.60284000 3.34576000e-03
-6.57284000 3.35896000e-03
-6.54284000 3.37219000e-03
-6.51284000 3.38551000e-03
-6.48284000 3.39910000e-03
-6.45284000 3.41280000e-03
-6.42284000 3.42652000e-03
-6.39284000 3.44030000e-03
-6.36284000 3.45413000e-03
-6.33284000 3.46804000e-03
-6.30284000 3.48204000e-03
-6.27284000 3.49611000e-03
-6.24284000 3.51027000e-03
-6.21284000 3.52451000e-03
-6.18284000 3.53884000e-03
-6.15284000 3.55327000e-03
-6.12284000 3.56778000e-03
-6.09284000 3.58238000e-03
-6.06284000 3.59707000e-03
-6.03284000 3.61186000e-03
-6.00284000 3.62675000e-03
-5.97284000 3.64173000e-03
-5.93894000 3.65878000e-03
-5.90894000 3.67397000e-03
-5.87894000 3.68926000e-03
-5.84894000 3.70465000e-03
-5.81894000 3.72014000e-03
-5.78894000 3.73574000e-03
-5.75894000 3.75145000e-03
-5.72894000 3.76726000e-03
-5.69894000 3.78318000e-03
-5.66894000 3.79921000e-03
-5.63894000 3.81535000e-03
-5.60894000 3.83161000e-03
-5.57894000 3.84798000e-03
-5.54894000 3.86446000e-03
-5.51894000 3.88106000e-03
-5.48894000 3.89779000e-03
-5.45894000 3.91463000e-03
-5.42894000 3.93159000e-03
-5.39894000 3.94868000e-03
-5.36894000 3.96589000e-03
-5.33894000 3.98323000e-03
-5.30894000 4.00070000e-03
-5.27894000 4.01829000e-03
-5.24894000 4.03603000e-03
-5.21894000 4.05389000e-03
-5.18894000 4.07189000e-03
-5.15894000 4.09003000e-03
-5.12894000 4.10831000e-03
-5.09504000 4.12913000e-03
-5.06504000 4.14772000e-03
-5.03504000 4.16644000e-03
-5.00504000 4.18532000e-03
-4.97504000 4.20435000e-03
-4.94504000 4.22353000e-03
-4.91504000 4.24286000e-03
-4.88504000 4.26235000e-03
-4.85504000 4.28200000e-03
-4.82504000 4.30182000e-03
-4.79504000 4.32180000e-03
-4.76504000 4.34195000e-03
-4.73504000 4.36228000e-03
-4.70504000 4.38277000e-03
-4.67504000 4.40341000e-03
-4.64504000 4.42422000e-03
-4.61504000 4.44522000e-03
-4.58504000 4.46641000e-03
-4.55504000 4.48778000e-03
-4.52504000 4.50934000e-03
-4.49504000 4.53109000e-03
-4.46504000 4.55304000e-03
-4.43504000 4.57519000e-03
-4.40504000 4.59753000e-03
-4.37504000 4.62008000e-03
-4.34504000 4.64283000e-03
-4.31504000 4.66579000e-03
-4.28504000 4.68897000e-03
-4.25113000 4.71542000e-03
-4.22113000 4.73907000e-03
-4.19113000 4.76294000e-03
-4.16113000 4.78703000e-03
-4.13113000 4.81136000e-03
-4.10113000 4.83593000e-03
-4.07113000 4.86074000e-03
-4.04113000 4.88579000e-03
-4.01113000 4.91109000e-03
-3.98113000 4.93665000e-03
-3.95113000 4.96246000e-03
-3.92113000 4.98854000e-03
-3.89113000 5.01489000e-03
-3.86113000 5.04151000e-03
-3.83113000 5.06842000e-03
-3.80113000 5.09560000e-03
-3.77113000 5.12308000e-03
-3.74113000 5.15086000e-03
-3.71113000 5.17894000e-03
-3.68113000 5.20734000e-03
-3.65113000 5.23607000e-03
-3.62113000 5.26514000e-03
-3.59113000 5.29458000e-03
-3.56113000 5.32444000e-03
-3.53113000 5.35482000e-03
-3.50113000 5.38593000e-03
-3.47113000 5.41773000e-03
-3.44113000 5.44879000e-03
-3.40723000 5.48329000e-03
-3.37723000 5.51467000e-03
-3.34723000 5.54649000e-03
-3.31723000 5.57875000e-03
-3.28723000 5.61157000e-03
-3.25723000 5.64490000e-03
-3.22723000 5.67870000e-03
-3.19723000 5.71295000e-03
-3.16723000 5.74767000e-03
-3.13723000 5.78284000e-03
-3.10723000 5.81849000e-03
-3.07723000 5.85462000e-03
-3.04723000 5.89125000e-03
-3.01723000 5.92838000e-03
-2.98723000 5.96603000e-03
-2.95723000 6.00422000e-03
-2.92723000 6.04296000e-03
-2.89723000 6.08229000e-03
-2.86723000 6.12222000e-03
-2.83723000 6.16280000e-03
-2.80723000 6.20406000e-03
-2.77723000 6.24615000e-03
-2.74723000 6.28906000e-03
-2.71723000 6.33237000e-03
-2.68723000 6.37644000e-03
-2.65723000 6.42083000e-03
-2.62723000 6.46518000e-03
-2.59723000 6.51045000e-03
-2.56333000 6.56292000e-03
-2.53333000 6.61049000e-03
-2.50333000 6.65912000e-03
-2.47333000 6.70887000e-03
-2.44333000 6.75991000e-03
-2.41333000 6.81253000e-03
-2.38333000 6.86732000e-03
-2.35333000 6.92553000e-03
-2.32333000 6.98995000e-03
-2.29333000 7.06606000e-03
-2.26333000 7.15140000e-03
-2.23333000 7.20341000e-03
-2.20333000 7.23140000e-03
-2.17333000 7.27184000e-03
-2.14333000 7.32316000e-03
-2.11333000 7.38041000e-03
-2.08333000 7.44104000e-03
-2.05333000 7.50431000e-03
-2.02333000 7.57013000e-03
-1.99333000 7.63901000e-03
-1.96333000 7.71194000e-03
-1.93333000 7.78583000e-03
-1.90333000 7.85608000e-03
-1.87333000 7.92539000e-03
-1.84333000 7.99770000e-03
-1.81333000 8.07380000e-03
-1.78333000 8.15304000e-03
-1.75333000 8.23504000e-03
-1.71943000 8.33094000e-03
-1.68943000 8.41873000e-03
-1.65943000 8.50938000e-03
-1.62943000 8.60309000e-03
-1.59943000 8.70004000e-03
-1.56943000 8.80049000e-03
-1.53943000 8.90472000e-03
-1.50943000 9.01307000e-03
-1.47943000 9.12595000e-03
-1.44943000 9.24384000e-03
-1.41943000 9.36731000e-03
-1.38943000 9.49710000e-03
-1.35943000 9.63411000e-03
-1.32943000 9.77950000e-03
-1.29943000 9.93483000e-03
-1.26943000 1.01022000e-02
-1.23943000 1.02844000e-02
-1.20943000 1.04858000e-02
-1.17943000 1.07125000e-02
-1.14943000 1.09744000e-02
-1.11943000 1.12875000e-02
-1.08943000 1.16800000e-02
-1.05943000 1.22040000e-02
-1.02943000 1.29642000e-02
-0.99943200 1.41868000e-02
-0.96943200 1.63900000e-02
-0.93943200 2.05328000e-02
-0.90943200 2.56071000e-02
-0.87553200 2.34260000e-02
-0.84553200 1.88124000e-02
-0.81553200 1.63555000e-02
-0.78553200 1.52757000e-02
-0.75553200 1.48493000e-02
-0.72553200 1.47511000e-02
-0.69553200 1.48381000e-02
-0.66553200 1.50435000e-02
-0.63553200 1.53350000e-02
-0.60553200 1.56970000e-02
-0.57553200 1.61228000e-02
-0.54553200 1.66113000e-02
-0.51553200 1.71652000e-02
-0.48553200 1.77902000e-02
-0.45553200 1.84953000e-02
-0.42553200 1.92927000e-02
-0.39553200 2.01991000e-02
-0.36553200 2.12367000e-02
-0.33553200 2.24345000e-02
-0.30553200 2.38282000e-02
-0.27553200 2.54776000e-02
-0.24553200 2.74737000e-02
-0.21553200 2.99172000e-02
-0.18553200 3.29404000e-02
-0.15553200 3.68703000e-02
-0.12553200 4.17650000e-02
-0.09553150 4.78381000e-02
-0.06553150 5.65894000e-02
-0.03163080 7.15378000e-02
-0.00163077 8.94020000e-02
0.02836920 1.17914000e-01
0.05836920 1.73589000e-01
0.08836920 2.77567000e-01
0.11836900 3.77772000e-01
0.14836900 3.28041000e-01
0.17836900 2.64566000e-01
0.20836900 2.76033000e-01
0.23836900 3.61618000e-01
0.26836900 4.82463000e-01
0.29836900 5.25919000e-01
0.32836900 5.57186000e-01
0.35836900 6.28496000e-01
0.38836900 6.50352000e-01
0.41836900 6.81597000e-01
0.44836900 6.36179000e-01
0.47836900 5.81153000e-01
0.50836900 5.34548000e-01
0.53836900 5.25889000e-01
0.56836900 6.50456000e-01
0.59836900 8.01195000e-01
0.62836900 6.57601000e-01
0.65836900 4.05551000e-01
0.68836900 2.53064000e-01
0.71836900 1.71096000e-01
0.74836900 1.26019000e-01
0.77836900 9.96252000e-02
