# E(MeV)  S_GAMTGAMT(K=0) for Es285_DDPCX
-8.60300000 3.07224000e-03
-8.57300000 3.08356000e-03
-8.54300000 3.09494000e-03
-8.51300000 3.10637000e-03
-8.48300000 3.11787000e-03
-8.45300000 3.12942000e-03
-8.42300000 3.14104000e-03
-8.39300000 3.15272000e-03
-8.36300000 3.16445000e-03
-8.33300000 3.17626000e-03
-8.30300000 3.18812000e-03
-8.27300000 3.20005000e-03
-8.24300000 3.21205000e-03
-8.21300000 3.22411000e-03
-8.18300000 3.23624000e-03
-8.15300000 3.24843000e-03
-8.12300000 3.26070000e-03
-8.09300000 3.27303000e-03
-8.06300000 3.28544000e-03
-8.03300000 3.29791000e-03
-8.00300000 3.31046000e-03
-7.97300000 3.32308000e-03
-7.94300000 3.33578000e-03
-7.91300000 3.34855000e-03
-7.88300000 3.36140000e-03
-7.85300000 3.37433000e-03
-7.82300000 3.38733000e-03
-7.79300000 3.40042000e-03
-7.76300000 3.41359000e-03
-7.73300000 3.42685000e-03
-7.70300000 3.44020000e-03
-7.66147000 3.45887000e-03
-7.63147000 3.47252000e-03
-7.60147000 3.48633000e-03
-7.57147000 3.50007000e-03
-7.54147000 3.51377000e-03
-7.51147000 3.52766000e-03
-7.48147000 3.54179000e-03
-7.45147000 3.55624000e-03
-7.42147000 3.57120000e-03
-7.39147000 3.58708000e-03
-7.36147000 3.60342000e-03
-7.33147000 3.61703000e-03
-7.30147000 3.62940000e-03
-7.27147000 3.64274000e-03
-7.24147000 3.65680000e-03
-7.21147000 3.67126000e-03
-7.18147000 3.68597000e-03
-7.15147000 3.70084000e-03
-7.12147000 3.71587000e-03
-7.09147000 3.73103000e-03
-7.06147000 3.74632000e-03
-7.03147000 3.76173000e-03
-7.00147000 3.77723000e-03
-6.97147000 3.79283000e-03
-6.94147000 3.80856000e-03
-6.91147000 3.82441000e-03
-6.88147000 3.84038000e-03
-6.85147000 3.85647000e-03
-6.82147000 3.87269000e-03
-6.79147000 3.88902000e-03
-6.76147000 3.90549000e-03
-6.71995000 3.92849000e-03
-6.68995000 3.94526000e-03
-6.65995000 3.96217000e-03
-6.62995000 3.97921000e-03
-6.59995000 3.99640000e-03
-6.56995000 4.01374000e-03
-6.53995000 4.03124000e-03
-6.50995000 4.04892000e-03
-6.47995000 4.06681000e-03
-6.44995000 4.08498000e-03
-6.41995000 4.10359000e-03
-6.38995000 4.12292000e-03
-6.35995000 4.14273000e-03
-6.32995000 4.16081000e-03
-6.29995000 4.17802000e-03
-6.26995000 4.19602000e-03
-6.23995000 4.21468000e-03
-6.20995000 4.23378000e-03
-6.17995000 4.25323000e-03
-6.14995000 4.27304000e-03
-6.11995000 4.29324000e-03
-6.08995000 4.31394000e-03
-6.05995000 4.33533000e-03
-6.02995000 4.35778000e-03
-5.99995000 4.38207000e-03
-5.96995000 4.40997000e-03
-5.93995000 4.44529000e-03
-5.90995000 4.49169000e-03
-5.87995000 4.52541000e-03
-5.84995000 4.52428000e-03
-5.81995000 4.52653000e-03
-5.77842000 4.54732000e-03
-5.74842000 4.57036000e-03
-5.71842000 4.60023000e-03
-5.68842000 4.64145000e-03
-5.65842000 4.69896000e-03
-5.62842000 4.73926000e-03
-5.59842000 4.72851000e-03
-5.56842000 4.72118000e-03
-5.53842000 4.72891000e-03
-5.50842000 4.74468000e-03
-5.47842000 4.76440000e-03
-5.44842000 4.78634000e-03
-5.41842000 4.80975000e-03
-5.38842000 4.83439000e-03
-5.35842000 4.86032000e-03
-5.32842000 4.88789000e-03
-5.29842000 4.91671000e-03
-5.26842000 4.94583000e-03
-5.23842000 4.97858000e-03
-5.20842000 5.01961000e-03
-5.17842000 5.07622000e-03
-5.14842000 5.14412000e-03
-5.11842000 5.16789000e-03
-5.08842000 5.16655000e-03
-5.05842000 5.17907000e-03
-5.02842000 5.18915000e-03
-4.99842000 5.20265000e-03
-4.96842000 5.22326000e-03
-4.93842000 5.24673000e-03
-4.90842000 5.27235000e-03
-4.87842000 5.30020000e-03
-4.83689000 5.34115000e-03
-4.80689000 5.37195000e-03
-4.77689000 5.40358000e-03
-4.74689000 5.43596000e-03
-4.71689000 5.46908000e-03
-4.68689000 5.50292000e-03
-4.65689000 5.53753000e-03
-4.62689000 5.57292000e-03
-4.59689000 5.60916000e-03
-4.56689000 5.64628000e-03
-4.53689000 5.68440000e-03
-4.50689000 5.72367000e-03
-4.47689000 5.76431000e-03
-4.44689000 5.80658000e-03
-4.41689000 5.85060000e-03
-4.38689000 5.89703000e-03
-4.35689000 5.94719000e-03
-4.32689000 6.00015000e-03
-4.29689000 6.05665000e-03
-4.26689000 6.12313000e-03
-4.23689000 6.21150000e-03
-4.20689000 6.32469000e-03
-4.17689000 6.40548000e-03
-4.14689000 6.40885000e-03
-4.11689000 6.41855000e-03
-4.08689000 6.45658000e-03
-4.05689000 6.50923000e-03
-4.02689000 6.57426000e-03
-3.99689000 6.64912000e-03
-3.96689000 6.73335000e-03
-3.93689000 6.82721000e-03
-3.89537000 6.97857000e-03
-3.86537000 7.11017000e-03
-3.83537000 7.26948000e-03
-3.80537000 7.47263000e-03
-3.77537000 7.72435000e-03
-3.74537000 7.95306000e-03
-3.71537000 8.18955000e-03
-3.68537000 8.53589000e-03
-3.65537000 9.03584000e-03
-3.62537000 9.75791000e-03
-3.59537000 1.08266000e-02
-3.56537000 1.25014000e-02
-3.53537000 1.53893000e-02
-3.50537000 2.07656000e-02
-3.47537000 3.08977000e-02
-3.44537000 4.59874000e-02
-3.41537000 5.06565000e-02
-3.38537000 3.71194000e-02
-3.35537000 2.47939000e-02
-3.32537000 1.83338000e-02
-3.29537000 1.53507000e-02
-3.26537000 1.40797000e-02
-3.23537000 1.41274000e-02
-3.20537000 1.58836000e-02
-3.17537000 1.94777000e-02
-3.14537000 2.02804000e-02
-3.11537000 1.62339000e-02
-3.08537000 1.31554000e-02
-3.05537000 1.16578000e-02
-3.02537000 1.09979000e-02
-2.99537000 1.08019000e-02
-2.95384000 1.11016000e-02
-2.92384000 1.18239000e-02
-2.89384000 1.33081000e-02
-2.86384000 1.61099000e-02
-2.83384000 1.93356000e-02
-2.80384000 2.08390000e-02
-2.77384000 2.45044000e-02
-2.74384000 2.81396000e-02
-2.71384000 2.34261000e-02
-2.68384000 1.73550000e-02
-2.65384000 1.40417000e-02
-2.62384000 1.23898000e-02
-2.59384000 1.15398000e-02
-2.56384000 1.10823000e-02
-2.53384000 1.08091000e-02
-2.50384000 1.06359000e-02
-2.47384000 1.05508000e-02
-2.44384000 1.05348000e-02
-2.41384000 1.05681000e-02
-2.38384000 1.06398000e-02
-2.35384000 1.07432000e-02
-2.32384000 1.08727000e-02
-2.29384000 1.10325000e-02
-2.26384000 1.12281000e-02
-2.23384000 1.14671000e-02
-2.20384000 1.17624000e-02
-2.17384000 1.21361000e-02
-2.14384000 1.26271000e-02
-2.11384000 1.33060000e-02
-2.08384000 1.43113000e-02
-2.05384000 1.59326000e-02
-2.01231000 2.03497000e-02
-1.98231000 2.60106000e-02
-1.95231000 3.44859000e-02
-1.92231000 3.93994000e-02
-1.89231000 3.21488000e-02
-1.86231000 2.49990000e-02
-1.83231000 2.12199000e-02
-1.80231000 2.00641000e-02
-1.77231000 1.97091000e-02
-1.74231000 1.90089000e-02
-1.71231000 1.87611000e-02
-1.68231000 1.86610000e-02
-1.65231000 1.86732000e-02
-1.62231000 1.88031000e-02
-1.59231000 1.94081000e-02
-1.56231000 2.05605000e-02
-1.53231000 2.24955000e-02
-1.50231000 2.57005000e-02
-1.47231000 3.13248000e-02
-1.44231000 4.19931000e-02
-1.41231000 6.28750000e-02
-1.38231000 9.15110000e-02
-1.35231000 8.73581000e-02
-1.32231000 5.95462000e-02
-1.29231000 4.25156000e-02
-1.26231000 3.48134000e-02
-1.23231000 3.20796000e-02
-1.20231000 3.26522000e-02
-1.17231000 3.60019000e-02
-1.14231000 3.91384000e-02
-1.11231000 3.60480000e-02
-1.07078000 3.17277000e-02
-1.04078000 3.15969000e-02
-1.01078000 3.36006000e-02
-0.98078400 3.79637000e-02
-0.95078400 4.13722000e-02
-0.92078400 3.95335000e-02
-0.89078400 3.81738000e-02
-0.86078400 3.89892000e-02
-0.83078400 4.14142000e-02
-0.80078400 4.53032000e-02
-0.77078400 5.10009000e-02
-0.74078400 5.95966000e-02
-0.71078400 7.32838000e-02
-0.68078400 9.41512000e-02
-0.65078400 1.21230000e-01
-0.62078400 1.65008000e-01
-0.59078400 2.19591000e-01
-0.56078400 2.19731000e-01
-0.53078400 2.07415000e-01
-0.50078400 2.23527000e-01
-0.47078400 2.65759000e-01
-0.44078400 3.77140000e-01
-0.41078400 5.89999000e-01
-0.38078400 7.25042000e-01
-0.35078400 6.13989000e-01
-0.32078400 5.46299000e-01
-0.29078400 6.51751000e-01
-0.26078400 8.25501000e-01
-0.23078400 8.06031000e-01
-0.20078400 6.31385000e-01
-0.17078400 4.59495000e-01
-0.12925700 3.17596000e-01
-0.09925700 2.67641000e-01
-0.06925700 2.17924000e-01
-0.03925700 1.83451000e-01
-0.00925701 1.68491000e-01
0.02074300 1.69269000e-01
0.05074300 1.92096000e-01
0.08074300 2.50826000e-01
0.11074300 3.38866000e-01
0.14074300 3.45498000e-01
0.17074300 2.75776000e-01
0.20074300 2.38804000e-01
0.23074300 2.40112000e-01
0.26074300 2.73430000e-01
0.29074300 3.46218000e-01
0.32074300 4.54854000e-01
0.35074300 5.49890000e-01
0.38074300 6.95007000e-01
0.41074300 1.02514000e+00
0.44074300 1.72523000e+00
0.47074300 2.99345000e+00
0.50074300 3.71884000e+00
0.53074300 2.57878000e+00
0.56074300 1.48924000e+00
0.59074300 9.24328000e-01
0.62074300 6.48347000e-01
0.65074300 5.26120000e-01
0.68074300 5.15846000e-01
0.71074300 6.22231000e-01
0.74074300 7.11504000e-01
0.77074300 5.45382000e-01
