# E(MeV)  S_GAMTGAMT(Total=K0+2*K1) for Es282_DDPCX
-9.23044000 7.52858000e-03
-9.20044000 7.56290000e-03
-9.17044000 7.59457000e-03
-9.14044000 7.62491000e-03
-9.11044000 7.65462000e-03
-9.08044000 7.68405000e-03
-9.05044000 7.71333000e-03
-9.02044000 7.74252000e-03
-8.99044000 7.77170000e-03
-8.96044000 7.80086000e-03
-8.93044000 7.83004000e-03
-8.90044000 7.85926000e-03
-8.87044000 7.88851000e-03
-8.84044000 7.91780000e-03
-8.81044000 7.94713000e-03
-8.78044000 7.97653000e-03
-8.75044000 8.00599000e-03
-8.72044000 8.03552000e-03
-8.69044000 8.06512000e-03
-8.66044000 8.09478000e-03
-8.63044000 8.12453000e-03
-8.60044000 8.15436000e-03
-8.57044000 8.18425000e-03
-8.54044000 8.21426000e-03
-8.51044000 8.24435000e-03
-8.48044000 8.27451000e-03
-8.45044000 8.30478000e-03
-8.42044000 8.33514000e-03
-8.39044000 8.36562000e-03
-8.36044000 8.39619000e-03
-8.33044000 8.42687000e-03
-8.30044000 8.45764000e-03
-8.27044000 8.48856000e-03
-8.22617000 8.53434000e-03
-8.19617000 8.56553000e-03
-8.16617000 8.59683000e-03
-8.13617000 8.62825000e-03
-8.10617000 8.65978000e-03
-8.07617000 8.69144000e-03
-8.04617000 8.72324000e-03
-8.01617000 8.75517000e-03
-7.98617000 8.78721000e-03
-7.95617000 8.81940000e-03
-7.92617000 8.85173000e-03
-7.89617000 8.88418000e-03
-7.86617000 8.91680000e-03
-7.83617000 8.94954000e-03
-7.80617000 8.98241000e-03
-7.77617000 9.01545000e-03
-7.74617000 9.04861000e-03
-7.71617000 9.08193000e-03
-7.68617000 9.11537000e-03
-7.65617000 9.14896000e-03
-7.62617000 9.18263000e-03
-7.59617000 9.21640000e-03
-7.56617000 9.25014000e-03
-7.53617000 9.28367000e-03
-7.50617000 9.31667000e-03
-7.47617000 9.34933000e-03
-7.44617000 9.38453000e-03
-7.41617000 9.42159000e-03
-7.38617000 9.45805000e-03
-7.35617000 9.49406000e-03
-7.32617000 9.52994000e-03
-7.29617000 9.56586000e-03
-7.26617000 9.60188000e-03
-7.22190000 9.65530000e-03
-7.19190000 9.69172000e-03
-7.16190000 9.72832000e-03
-7.13190000 9.76510000e-03
-7.10190000 9.80209000e-03
-7.07190000 9.83925000e-03
-7.04190000 9.87663000e-03
-7.01190000 9.91420000e-03
-6.98190000 9.95199000e-03
-6.95190000 9.98999000e-03
-6.92190000 1.00281900e-02
-6.89190000 1.00666000e-02
-6.86190000 1.01052400e-02
-6.83190000 1.01440900e-02
-6.80190000 1.01831700e-02
-6.77190000 1.02224800e-02
-6.74190000 1.02620100e-02
-6.71190000 1.03017600e-02
-6.68190000 1.03417700e-02
-6.65190000 1.03819900e-02
-6.62190000 1.04224700e-02
-6.59190000 1.04631800e-02
-6.56190000 1.05041300e-02
-6.53190000 1.05453400e-02
-6.50190000 1.05867800e-02
-6.47190000 1.06284900e-02
-6.44190000 1.06704500e-02
-6.41190000 1.07126600e-02
-6.38190000 1.07551500e-02
-6.35190000 1.07979000e-02
-6.32190000 1.08409100e-02
-6.29190000 1.08841900e-02
-6.26190000 1.09277500e-02
-6.21763000 1.09925500e-02
-6.18763000 1.10368100e-02
-6.15763000 1.10813400e-02
-6.12763000 1.11261800e-02
-6.09763000 1.11713100e-02
-6.06763000 1.12167100e-02
-6.03763000 1.12624400e-02
-6.00763000 1.13084500e-02
-5.97763000 1.13548000e-02
-5.94763000 1.14014300e-02
-5.91763000 1.14483900e-02
-5.88763000 1.14956600e-02
-5.85763000 1.15432600e-02
-5.82763000 1.15911900e-02
-5.79763000 1.16394500e-02
-5.76763000 1.16880200e-02
-5.73763000 1.17369500e-02
-5.70763000 1.17862100e-02
-5.67763000 1.18358500e-02
-5.64763000 1.18858100e-02
-5.61763000 1.19361400e-02
-5.58763000 1.19868100e-02
-5.55763000 1.20378600e-02
-5.52763000 1.20892900e-02
-5.49763000 1.21410800e-02
-5.46763000 1.21932500e-02
-5.43763000 1.22458000e-02
-5.40763000 1.22987500e-02
-5.37763000 1.23520900e-02
-5.34763000 1.24058400e-02
-5.31763000 1.24599700e-02
-5.28763000 1.25145400e-02
-5.25763000 1.25694900e-02
-5.21335000 1.26514000e-02
-5.18335000 1.27074100e-02
-5.15335000 1.27638800e-02
-5.12335000 1.28207700e-02
-5.09335000 1.28781200e-02
-5.06335000 1.29359300e-02
-5.03335000 1.29941900e-02
-5.00335000 1.30529300e-02
-4.97335000 1.31121400e-02
-4.94335000 1.31718400e-02
-4.91335000 1.32320100e-02
-4.88335000 1.32926900e-02
-4.85335000 1.33538800e-02
-4.82335000 1.34155500e-02
-4.79335000 1.34777700e-02
-4.76335000 1.35405100e-02
-4.73335000 1.36038000e-02
-4.70335000 1.36676300e-02
-4.67335000 1.37320000e-02
-4.64335000 1.37969600e-02
-4.61335000 1.38625100e-02
-4.58335000 1.39286600e-02
-4.55335000 1.39954400e-02
-4.52335000 1.40628900e-02
-4.49335000 1.41310500e-02
-4.46335000 1.42000700e-02
-4.43335000 1.42702000e-02
-4.40335000 1.43419600e-02
-4.37335000 1.44157500e-02
-4.34335000 1.44881800e-02
-4.31335000 1.45570200e-02
-4.28335000 1.46270700e-02
-4.25335000 1.46992300e-02
-4.20908000 1.48085400e-02
-4.17908000 1.48843200e-02
-4.14908000 1.49617200e-02
-4.11908000 1.50413800e-02
-4.08908000 1.51247100e-02
-4.05908000 1.52150300e-02
-4.02908000 1.53167200e-02
-3.99908000 1.54153900e-02
-3.96908000 1.54832800e-02
-3.93908000 1.55531000e-02
-3.90908000 1.56307800e-02
-3.87908000 1.57002000e-02
-3.84908000 1.57707800e-02
-3.81908000 1.58475100e-02
-3.78908000 1.59286100e-02
-3.75908000 1.60124200e-02
-3.72908000 1.60981100e-02
-3.69908000 1.61852500e-02
-3.66908000 1.62737200e-02
-3.63908000 1.63634000e-02
-3.60908000 1.64542500e-02
-3.57908000 1.65462600e-02
-3.54908000 1.66394400e-02
-3.51908000 1.67337900e-02
-3.48908000 1.68293400e-02
-3.45908000 1.69261100e-02
-3.42908000 1.70241600e-02
-3.39908000 1.71234800e-02
-3.36908000 1.72241300e-02
-3.33908000 1.73262000e-02
-3.30908000 1.74297000e-02
-3.27908000 1.75347400e-02
-3.24908000 1.76414600e-02
-3.20481000 1.78024100e-02
-3.17481000 1.79144000e-02
-3.14481000 1.80293300e-02
-3.11481000 1.81463500e-02
-3.08481000 1.82654800e-02
-3.05481000 1.83863700e-02
-3.02481000 1.85085700e-02
-2.99481000 1.86320900e-02
-2.96481000 1.87568000e-02
-2.93481000 1.88892500e-02
-2.90481000 1.90325400e-02
-2.87481000 1.91719500e-02
-2.84481000 1.93018800e-02
-2.81481000 1.94389600e-02
-2.78481000 1.95871500e-02
-2.75481000 1.97498100e-02
-2.72481000 1.99305800e-02
-2.69481000 2.01370500e-02
-2.66481000 2.03845400e-02
-2.63481000 2.07042300e-02
-2.60481000 2.11635800e-02
-2.57481000 2.19161100e-02
-2.54481000 2.32650500e-02
-2.51481000 2.51044600e-02
-2.48481000 2.51200200e-02
-2.45481000 2.36321700e-02
-2.42481000 2.27831300e-02
-2.39481000 2.25125600e-02
-2.36481000 2.23808700e-02
-2.33481000 2.22973100e-02
-2.30481000 2.23310000e-02
-2.27481000 2.24467500e-02
-2.24481000 2.25463700e-02
-2.20054000 2.26944700e-02
-2.17054000 2.28439900e-02
-2.14054000 2.30279900e-02
-2.11054000 2.32098600e-02
-2.08054000 2.33745100e-02
-2.05054000 2.35474400e-02
-2.02054000 2.37349000e-02
-1.99054000 2.39358400e-02
-1.96054000 2.41482500e-02
-1.93054000 2.43701100e-02
-1.90054000 2.46005700e-02
-1.87054000 2.48394300e-02
-1.84054000 2.50868000e-02
-1.81054000 2.53429500e-02
-1.78054000 2.56084000e-02
-1.75054000 2.58837000e-02
-1.72054000 2.61695500e-02
-1.69054000 2.64668300e-02
-1.66054000 2.67765000e-02
-1.63054000 2.70997700e-02
-1.60054000 2.74380100e-02
-1.57054000 2.77928600e-02
-1.54054000 2.81663000e-02
-1.51054000 2.85607000e-02
-1.48054000 2.89791000e-02
-1.45054000 2.94247400e-02
-1.42054000 2.99026100e-02
-1.39054000 3.04183500e-02
-1.36054000 3.09790500e-02
-1.33054000 3.15949500e-02
-1.30054000 3.22791000e-02
-1.27054000 3.30497800e-02
-1.24054000 3.39323100e-02
-1.19627000 3.55231000e-02
-1.16627000 3.68865000e-02
-1.13627000 3.86024000e-02
-1.10627000 4.08548000e-02
-1.07627000 4.39705000e-02
-1.04627000 4.85670000e-02
-1.01627000 5.59074000e-02
-0.98627200 6.87792000e-02
-0.95627200 9.35056000e-02
-0.92627200 1.40191500e-01
-0.89627200 1.85571700e-01
-0.86627200 1.53689000e-01
-0.83627200 1.04293500e-01
-0.80627200 7.76393000e-02
-0.77627200 6.48610000e-02
-0.74627200 5.86175000e-02
-0.71627200 5.56410000e-02
-0.68627200 5.45003000e-02
-0.65627200 5.45496000e-02
-0.62627200 5.55175000e-02
-0.59627200 5.73476000e-02
-0.56627200 6.01014000e-02
-0.53627200 6.40349000e-02
-0.50627200 6.99636000e-02
-0.47627200 7.97289000e-02
-0.44627200 9.70222000e-02
-0.41627200 1.23026100e-01
-0.38627200 1.34003900e-01
-0.35627200 1.25600700e-01
-0.32627200 1.22624300e-01
-0.29627200 1.33991900e-01
-0.26627200 1.65332200e-01
-0.23627200 2.28216700e-01
-0.19200100 3.37526600e-01
-0.16200100 3.78100400e-01
-0.13200100 4.07178500e-01
-0.10200100 3.26501900e-01
-0.07200080 2.52152200e-01
-0.04200080 2.27226100e-01
-0.01200080 2.37351900e-01
0.01799920 2.78590800e-01
0.04799920 3.46886800e-01
0.07799920 4.29027600e-01
0.10799900 5.61699100e-01
0.13799900 7.00305600e-01
0.16799900 8.85791100e-01
0.19799900 1.26751900e+00
0.22799900 1.72819480e+00
0.25799900 2.09125110e+00
0.28799900 2.28857570e+00
0.31799900 2.57819130e+00
0.34799900 2.19663240e+00
0.37799900 1.48419360e+00
0.40799900 1.10704010e+00
0.43799900 8.28963800e-01
0.46799900 5.77958300e-01
0.49799900 4.25823800e-01
0.52799900 3.22977800e-01
0.55799900 2.60402900e-01
0.58799900 2.28928400e-01
0.61799900 2.18611700e-01
0.64799900 2.08533700e-01
0.67799900 1.85148300e-01
0.70799900 1.71867300e-01
0.73799900 1.75331900e-01
0.76799900 1.78763600e-01
