# E(MeV)  S_GAMTGAMT(K=1) for Es306_DDPCX
-14.51260000 2.21108000e-03
-14.48260000 2.26990000e-03
-14.45260000 2.30961000e-03
-14.42260000 2.33918000e-03
-14.39260000 2.36311000e-03
-14.36260000 2.38362000e-03
-14.33260000 2.40188000e-03
-14.30260000 2.41857000e-03
-14.27260000 2.43412000e-03
-14.24260000 2.44879000e-03
-14.21260000 2.46278000e-03
-14.18260000 2.47623000e-03
-14.15260000 2.48923000e-03
-14.12260000 2.50187000e-03
-14.09260000 2.51420000e-03
-14.06260000 2.52627000e-03
-14.03260000 2.53811000e-03
-14.00260000 2.54976000e-03
-13.97260000 2.56124000e-03
-13.94260000 2.57257000e-03
-13.91260000 2.58377000e-03
-13.88260000 2.59485000e-03
-13.85260000 2.60583000e-03
-13.82260000 2.61670000e-03
-13.79260000 2.62748000e-03
-13.76260000 2.63817000e-03
-13.73260000 2.64876000e-03
-13.70260000 2.65922000e-03
-13.67260000 2.66947000e-03
-13.64260000 2.67942000e-03
-13.61260000 2.68951000e-03
-13.58260000 2.70033000e-03
-13.55260000 2.71106000e-03
-13.52260000 2.72140000e-03
-13.49260000 2.73129000e-03
-13.46260000 2.74049000e-03
-13.43260000 2.74914000e-03
-13.40260000 2.75964000e-03
-13.37260000 2.77169000e-03
-13.34260000 2.78311000e-03
-13.31260000 2.79394000e-03
-13.28260000 2.80447000e-03
-13.25260000 2.81486000e-03
-13.22260000 2.82515000e-03
-13.19260000 2.83537000e-03
-13.16260000 2.84552000e-03
-13.13260000 2.85559000e-03
-13.10260000 2.86555000e-03
-13.07260000 2.87536000e-03
-13.04260000 2.88494000e-03
-13.01260000 2.89417000e-03
-12.98010000 2.90351000e-03
-12.95010000 2.91106000e-03
-12.92010000 2.91665000e-03
-12.89010000 2.91831000e-03
-12.86010000 2.91172000e-03
-12.83010000 2.89130000e-03
-12.80010000 2.86673000e-03
-12.77010000 2.86965000e-03
-12.74010000 2.92095000e-03
-12.71010000 2.96876000e-03
-12.68010000 3.00199000e-03
-12.65010000 3.02903000e-03
-12.62010000 3.04679000e-03
-12.59010000 3.05483000e-03
-12.56010000 3.06357000e-03
-12.53010000 3.07419000e-03
-12.50010000 3.08602000e-03
-12.47010000 3.10002000e-03
-12.44010000 3.11699000e-03
-12.41010000 3.13852000e-03
-12.38010000 3.16897000e-03
-12.35010000 3.20168000e-03
-12.32010000 3.20399000e-03
-12.29010000 3.19417000e-03
-12.26010000 3.19215000e-03
-12.23010000 3.19684000e-03
-12.20010000 3.20499000e-03
-12.17010000 3.21488000e-03
-12.14010000 3.22573000e-03
-12.11010000 3.23720000e-03
-12.08010000 3.24912000e-03
-12.05010000 3.26143000e-03
-12.02010000 3.27411000e-03
-11.99010000 3.28721000e-03
-11.96010000 3.30079000e-03
-11.93010000 3.31501000e-03
-11.90010000 3.33009000e-03
-11.87010000 3.34648000e-03
-11.84010000 3.36498000e-03
-11.81010000 3.38722000e-03
-11.78010000 3.41681000e-03
-11.75010000 3.46137000e-03
-11.72010000 3.52661000e-03
-11.69010000 3.56443000e-03
-11.66010000 3.54795000e-03
-11.63010000 3.55007000e-03
-11.60010000 3.58928000e-03
-11.57010000 3.67916000e-03
-11.54010000 3.85543000e-03
-11.51010000 4.06612000e-03
-11.48010000 3.99361000e-03
-11.44760000 3.78325000e-03
-11.41760000 3.68060000e-03
-11.38760000 3.63610000e-03
-11.35760000 3.61887000e-03
-11.32760000 3.61495000e-03
-11.29760000 3.61814000e-03
-11.26760000 3.62545000e-03
-11.23760000 3.63537000e-03
-11.20760000 3.64707000e-03
-11.17760000 3.66005000e-03
-11.14760000 3.67404000e-03
-11.11760000 3.68886000e-03
-11.08760000 3.70441000e-03
-11.05760000 3.72064000e-03
-11.02760000 3.73753000e-03
-10.99760000 3.75509000e-03
-10.96760000 3.77333000e-03
-10.93760000 3.79232000e-03
-10.90760000 3.81211000e-03
-10.87760000 3.83282000e-03
-10.84760000 3.85458000e-03
-10.81760000 3.87756000e-03
-10.78760000 3.90201000e-03
-10.75760000 3.92828000e-03
-10.72760000 3.95689000e-03
-10.69760000 3.98865000e-03
-10.66760000 4.02490000e-03
-10.63760000 4.06809000e-03
-10.60760000 4.12302000e-03
-10.57760000 4.19856000e-03
-10.54760000 4.30828000e-03
-10.51760000 4.45973000e-03
-10.48760000 4.54918000e-03
-10.45760000 4.57087000e-03
-10.42760000 4.69213000e-03
-10.39760000 4.98489000e-03
-10.36760000 5.36059000e-03
-10.33760000 5.30640000e-03
-10.30760000 5.06316000e-03
-10.27760000 4.98932000e-03
-10.24760000 5.05906000e-03
-10.21760000 5.24938000e-03
-10.18760000 5.59580000e-03
-10.15760000 6.15421000e-03
-10.12760000 6.70870000e-03
-10.09760000 7.16944000e-03
-10.06760000 8.09449000e-03
-10.03760000 9.38780000e-03
-10.00760000 1.13226000e-02
-9.97764000 1.56123000e-02
-9.94764000 2.41014000e-02
-9.91515000 3.16196000e-02
-9.88515000 2.42056000e-02
-9.85515000 1.58936000e-02
-9.82515000 1.17651000e-02
-9.79515000 1.01812000e-02
-9.76515000 9.53492000e-03
-9.73515000 8.47051000e-03
-9.70515000 7.45605000e-03
-9.67515000 6.83018000e-03
-9.64515000 6.59244000e-03
-9.61515000 6.66827000e-03
-9.58515000 7.08767000e-03
-9.55515000 7.88839000e-03
-9.52515000 9.04814000e-03
-9.49515000 1.14577000e-02
-9.46515000 1.58035000e-02
-9.43515000 1.73718000e-02
-9.40515000 1.30477000e-02
-9.37515000 9.51193000e-03
-9.34515000 7.75100000e-03
-9.31515000 6.92249000e-03
-9.28515000 6.59755000e-03
-9.25515000 6.66132000e-03
-9.22515000 7.11708000e-03
-9.19515000 7.52078000e-03
-9.16515000 7.30376000e-03
-9.13515000 6.76984000e-03
-9.10515000 6.49542000e-03
-9.07515000 6.57705000e-03
-9.04515000 6.90874000e-03
-9.01515000 7.06774000e-03
-8.98515000 6.65654000e-03
-8.95515000 6.37980000e-03
-8.92515000 6.47397000e-03
-8.89515000 6.99256000e-03
-8.86515000 7.88671000e-03
-8.83515000 7.99180000e-03
-8.80515000 7.28136000e-03
-8.77515000 6.91904000e-03
-8.74515000 6.97038000e-03
-8.71515000 7.47692000e-03
-8.68515000 8.71905000e-03
-8.65515000 1.09763000e-02
-8.62515000 1.21543000e-02
-8.59515000 1.04752000e-02
-8.56515000 9.18019000e-03
-8.53515000 8.42459000e-03
-8.50515000 7.96952000e-03
-8.47515000 7.81285000e-03
-8.44515000 7.97507000e-03
-8.41515000 8.55449000e-03
-8.38266000 9.51658000e-03
-8.35266000 9.53266000e-03
-8.32266000 8.71862000e-03
-8.29266000 8.20987000e-03
-8.26266000 8.28566000e-03
-8.23266000 8.87754000e-03
-8.20266000 1.01281000e-02
-8.17266000 1.24926000e-02
-8.14266000 1.57412000e-02
-8.11266000 1.96787000e-02
-8.08266000 2.53815000e-02
-8.05266000 2.64173000e-02
-8.02266000 1.96845000e-02
-7.99266000 1.47626000e-02
-7.96266000 1.28012000e-02
-7.93266000 1.27610000e-02
-7.90266000 1.32565000e-02
-7.87266000 1.36101000e-02
-7.84266000 1.44728000e-02
-7.81266000 1.62410000e-02
-7.78266000 1.62648000e-02
-7.75266000 1.36907000e-02
-7.72266000 1.16664000e-02
-7.69266000 1.13583000e-02
-7.66266000 1.26147000e-02
-7.63266000 1.43377000e-02
-7.60266000 1.41590000e-02
-7.57266000 1.32395000e-02
-7.54266000 1.13659000e-02
-7.51266000 9.78990000e-03
-7.48266000 8.87413000e-03
-7.45266000 8.54512000e-03
-7.42266000 8.60553000e-03
-7.39266000 8.57273000e-03
-7.36266000 8.46010000e-03
-7.33266000 8.68705000e-03
-7.30266000 9.46083000e-03
-7.27266000 1.07811000e-02
-7.24266000 1.16991000e-02
-7.21266000 1.19634000e-02
-7.18266000 1.19118000e-02
-7.15266000 1.16331000e-02
-7.12266000 1.17969000e-02
-7.09266000 1.24804000e-02
-7.06266000 1.20828000e-02
-7.03266000 1.09388000e-02
-7.00266000 1.05316000e-02
-6.97266000 1.07643000e-02
-6.94266000 1.09339000e-02
-6.91266000 1.14001000e-02
-6.88266000 1.22382000e-02
-6.85017000 1.38003000e-02
-6.82017000 1.66744000e-02
-6.79017000 1.99078000e-02
-6.76017000 2.01394000e-02
-6.73017000 1.70973000e-02
-6.70017000 1.51282000e-02
-6.67017000 1.42147000e-02
-6.64017000 1.32677000e-02
-6.61017000 1.30673000e-02
-6.58017000 1.39036000e-02
-6.55017000 1.61290000e-02
-6.52017000 2.00728000e-02
-6.49017000 2.44994000e-02
-6.46017000 2.67398000e-02
-6.43017000 2.23504000e-02
-6.40017000 1.80391000e-02
-6.37017000 1.69472000e-02
-6.34017000 1.76883000e-02
-6.31017000 1.79944000e-02
-6.28017000 1.62174000e-02
-6.25017000 1.50804000e-02
-6.22017000 1.53772000e-02
-6.19017000 1.71676000e-02
-6.16017000 2.10645000e-02
-6.13017000 2.76450000e-02
-6.10017000 3.73288000e-02
-6.07017000 5.00151000e-02
-6.04017000 5.10133000e-02
-6.01017000 3.80564000e-02
-5.98017000 2.85701000e-02
-5.95017000 2.36856000e-02
-5.92017000 1.99399000e-02
-5.89017000 1.75315000e-02
-5.86017000 1.70907000e-02
-5.83017000 1.74506000e-02
-5.80017000 1.65667000e-02
-5.77017000 1.52605000e-02
-5.74017000 1.48356000e-02
-5.71017000 1.51052000e-02
-5.68017000 1.60041000e-02
-5.65017000 1.70126000e-02
-5.62017000 1.69288000e-02
-5.59017000 1.66082000e-02
-5.56017000 1.71367000e-02
-5.53017000 1.86009000e-02
-5.50017000 2.13475000e-02
-5.47017000 2.60817000e-02
-5.44017000 3.51732000e-02
-5.41017000 5.30522000e-02
-5.38017000 7.38231000e-02
-5.35017000 6.68877000e-02
-5.31768000 4.73876000e-02
-5.28768000 3.55730000e-02
-5.25768000 2.96097000e-02
-5.22768000 2.87149000e-02
-5.19768000 2.80450000e-02
-5.16768000 2.49983000e-02
-5.13768000 2.27216000e-02
-5.10768000 2.23998000e-02
-5.07768000 2.42246000e-02
-5.04768000 2.80368000e-02
-5.01768000 3.56814000e-02
-4.98768000 4.93704000e-02
-4.95768000 6.20486000e-02
-4.92768000 6.07624000e-02
-4.89768000 5.26291000e-02
-4.86768000 4.29453000e-02
-4.83768000 3.50411000e-02
-4.80768000 3.21092000e-02
-4.77768000 3.11321000e-02
-4.74768000 3.19990000e-02
-4.71768000 3.69425000e-02
-4.68768000 4.85591000e-02
-4.65768000 7.20397000e-02
-4.62768000 1.04765000e-01
-4.59768000 1.06117000e-01
-4.56768000 7.70904000e-02
-4.53768000 5.68991000e-02
-4.50768000 4.92105000e-02
-4.47768000 4.58232000e-02
-4.44768000 4.68160000e-02
-4.41768000 5.27158000e-02
-4.38768000 4.83222000e-02
-4.35768000 3.82567000e-02
-4.32768000 3.30272000e-02
-4.29768000 3.23878000e-02
-4.26768000 3.49539000e-02
-4.23768000 3.63173000e-02
-4.20768000 3.36850000e-02
-4.17768000 3.02016000e-02
-4.14768000 2.84033000e-02
-4.11768000 2.99033000e-02
-4.08768000 3.52089000e-02
-4.05768000 4.29407000e-02
-4.02768000 5.09934000e-02
-3.99768000 5.66460000e-02
-3.96768000 5.25157000e-02
-3.93768000 4.52335000e-02
-3.90768000 3.99250000e-02
-3.87768000 4.13166000e-02
-3.84768000 5.09203000e-02
-3.81768000 6.29038000e-02
-3.78520000 5.71381000e-02
-3.75520000 4.64737000e-02
-3.72520000 4.00314000e-02
-3.69520000 3.73851000e-02
-3.66520000 3.61282000e-02
-3.63520000 3.63707000e-02
-3.60520000 3.85717000e-02
-3.57520000 4.26220000e-02
-3.54520000 4.26669000e-02
-3.51520000 4.22963000e-02
-3.48520000 4.69414000e-02
-3.45520000 5.76940000e-02
-3.42520000 6.97652000e-02
-3.39520000 7.73430000e-02
-3.36520000 8.59954000e-02
-3.33520000 1.00681000e-01
-3.30520000 1.37036000e-01
-3.27520000 2.12785000e-01
-3.24520000 2.82404000e-01
-3.21520000 2.40448000e-01
-3.18520000 1.63580000e-01
-3.15520000 1.07818000e-01
-3.12520000 7.51619000e-02
-3.09520000 5.78914000e-02
-3.06520000 4.83762000e-02
-3.03520000 4.30449000e-02
-3.00520000 4.07611000e-02
-2.97520000 4.08228000e-02
-2.94520000 4.38188000e-02
-2.91520000 5.04195000e-02
-2.88520000 5.28493000e-02
-2.85520000 4.69680000e-02
-2.82520000 4.21906000e-02
-2.79520000 3.95624000e-02
-2.76520000 3.94215000e-02
-2.73520000 4.07037000e-02
-2.70520000 4.19913000e-02
-2.67520000 4.34491000e-02
-2.64520000 4.49926000e-02
-2.61520000 4.76631000e-02
-2.58520000 5.30484000e-02
-2.55520000 6.46174000e-02
-2.52520000 8.05366000e-02
-2.49520000 7.84877000e-02
-2.46520000 6.59820000e-02
-2.43520000 6.06526000e-02
-2.40520000 5.82313000e-02
-2.37520000 5.62570000e-02
-2.34520000 5.80337000e-02
-2.31520000 6.30133000e-02
-2.28520000 6.90747000e-02
-2.25271000 7.73620000e-02
-2.22271000 8.48041000e-02
-2.19271000 9.34009000e-02
-2.16271000 1.05951000e-01
-2.13271000 1.34004000e-01
-2.10271000 1.93823000e-01
-2.07271000 2.75204000e-01
-2.04271000 2.62738000e-01
-2.01271000 1.87358000e-01
-1.98271000 1.46318000e-01
-1.95271000 1.34493000e-01
-1.92271000 1.29821000e-01
-1.89271000 1.22910000e-01
-1.86271000 1.21337000e-01
-1.83271000 1.27883000e-01
-1.80271000 1.42381000e-01
-1.77271000 1.66621000e-01
-1.74271000 2.04447000e-01
-1.71271000 2.55782000e-01
-1.68271000 3.18845000e-01
-1.65271000 4.16120000e-01
-1.62271000 5.91215000e-01
-1.59271000 8.60921000e-01
-1.56271000 1.11103000e+00
-1.53271000 9.91807000e-01
-1.50271000 8.30499000e-01
-1.47271000 8.72811000e-01
-1.44271000 1.06974000e+00
-1.41271000 1.17789000e+00
-1.38271000 1.27754000e+00
-1.35271000 1.47740000e+00
-1.32271000 1.95670000e+00
-1.29271000 2.43095000e+00
-1.26271000 2.06184000e+00
-1.23271000 1.51290000e+00
-1.20271000 1.13741000e+00
-1.17271000 1.00983000e+00
-1.14271000 1.00053000e+00
-1.11271000 1.01742000e+00
-1.08271000 1.18421000e+00
-1.05271000 1.49469000e+00
-1.02271000 1.97629000e+00
-0.99270700 2.12652000e+00
-0.96270700 1.59900000e+00
-0.93270700 1.13628000e+00
-0.90270700 9.51961000e-01
-0.87270700 1.00427000e+00
-0.84270700 1.19816000e+00
-0.81270700 1.28101000e+00
-0.78270700 1.39973000e+00
-0.75270700 1.87138000e+00
-0.72021800 3.05839000e+00
-0.69021800 4.05175000e+00
-0.66021800 3.25070000e+00
-0.63021800 2.08880000e+00
-0.60021800 1.42382000e+00
-0.57021800 1.12655000e+00
-0.54021800 1.07623000e+00
-0.51021800 1.20524000e+00
-0.48021800 1.62219000e+00
-0.45021800 2.31368000e+00
-0.42021800 2.26152000e+00
-0.39021800 1.55479000e+00
-0.36021800 1.14754000e+00
-0.33021800 9.82441000e-01
-0.30021800 9.15695000e-01
-0.27021800 9.30247000e-01
-0.24021800 1.09306000e+00
-0.21021800 1.46178000e+00
-0.18021800 1.78394000e+00
-0.15021800 1.67394000e+00
-0.12021800 1.43231000e+00
-0.09021850 1.34871000e+00
-0.06021850 1.41035000e+00
-0.03021850 1.69125000e+00
-0.00021847 2.39725000e+00
0.02978150 3.85408000e+00
0.05978150 6.29391000e+00
0.08978150 7.08299000e+00
0.11978200 4.73508000e+00
0.14978200 2.70505000e+00
0.17978200 1.64990000e+00
0.20978200 1.10953000e+00
0.23978200 8.07923000e-01
0.26978200 6.21713000e-01
0.29978200 4.99732000e-01
0.32978200 4.16227000e-01
0.35978200 3.52054000e-01
0.38978200 3.05354000e-01
0.41978200 2.68711000e-01
0.44978200 2.42067000e-01
0.47978200 2.21901000e-01
0.50978200 2.02376000e-01
0.53978200 1.88424000e-01
0.56978200 1.80131000e-01
0.59978200 1.72023000e-01
0.62978200 1.64579000e-01
0.65978200 1.63302000e-01
0.68978200 1.69075000e-01
0.71978200 1.81512000e-01
0.74978200 1.95060000e-01
0.77978200 2.05689000e-01
