# E(MeV)  S_GAMTGAMT(Total=K0+2*K1) for Es306_DDPCX
-14.51260000 5.37767100e-03
-14.48260000 4.65636800e-03
-14.45260000 4.86124500e-03
-14.42260000 5.80379000e-03
-14.39260000 6.41934000e-03
-14.36260000 6.75112000e-03
-14.33260000 6.94647000e-03
-14.30260000 7.07590000e-03
-14.27260000 7.17074000e-03
-14.24260000 7.24582000e-03
-14.21260000 7.30877000e-03
-14.18260000 7.36383000e-03
-14.15260000 7.41348000e-03
-14.12260000 7.45928000e-03
-14.09260000 7.50222000e-03
-14.06260000 7.54298000e-03
-14.03260000 7.58201000e-03
-14.00260000 7.61964000e-03
-13.97260000 7.65606000e-03
-13.94260000 7.69137000e-03
-13.91260000 7.72554000e-03
-13.88260000 7.75829000e-03
-13.85260000 7.78881000e-03
-13.82260000 7.81526000e-03
-13.79260000 7.83735000e-03
-13.76260000 7.86916000e-03
-13.73260000 7.91276000e-03
-13.70260000 7.95268000e-03
-13.67260000 7.98822000e-03
-13.64260000 8.02119000e-03
-13.61260000 8.05349000e-03
-13.58260000 8.08675000e-03
-13.55260000 8.11953000e-03
-13.52260000 8.15136000e-03
-13.49260000 8.18218000e-03
-13.46260000 8.21154000e-03
-13.43260000 8.23977000e-03
-13.40260000 8.27168000e-03
-13.37260000 8.30669000e-03
-13.34260000 8.34046000e-03
-13.31260000 8.37310000e-03
-13.28260000 8.40519000e-03
-13.25260000 8.43708000e-03
-13.22260000 8.46888000e-03
-13.19260000 8.50067000e-03
-13.16260000 8.53251000e-03
-13.13260000 8.56441000e-03
-13.10260000 8.59638000e-03
-13.07260000 8.62843000e-03
-13.04260000 8.66054000e-03
-13.01260000 8.69264000e-03
-12.98010000 8.72718000e-03
-12.95010000 8.75838000e-03
-12.92010000 8.78775000e-03
-12.89010000 8.81248000e-03
-12.86010000 8.82591000e-03
-12.83010000 8.82064000e-03
-12.80010000 8.82359000e-03
-12.77010000 8.91462000e-03
-12.74010000 9.17333000e-03
-12.71010000 9.56445000e-03
-12.68010000 9.98004000e-03
-12.65010000 9.89972000e-03
-12.62010000 9.58822000e-03
-12.59010000 9.40542000e-03
-12.56010000 9.32624000e-03
-12.53010000 9.29635000e-03
-12.50010000 9.28567000e-03
-12.47010000 9.28149000e-03
-12.44010000 9.30149000e-03
-12.41010000 9.36795000e-03
-12.38010000 9.45293000e-03
-12.35010000 9.53474000e-03
-12.32010000 9.55205000e-03
-12.29010000 9.54371000e-03
-12.26010000 9.55050000e-03
-12.23010000 9.57061000e-03
-12.20010000 9.59770000e-03
-12.17010000 9.62840000e-03
-12.14010000 9.66116000e-03
-12.11010000 9.69532000e-03
-12.08010000 9.73054000e-03
-12.05010000 9.76669000e-03
-12.02010000 9.80375000e-03
-11.99010000 9.84182000e-03
-11.96010000 9.88102000e-03
-11.93010000 9.92168000e-03
-11.90010000 9.96425000e-03
-11.87010000 1.00096600e-02
-11.84010000 1.00595300e-02
-11.81010000 1.01171500e-02
-11.78010000 1.01897900e-02
-11.75010000 1.02927500e-02
-11.72010000 1.04375500e-02
-11.69010000 1.05281100e-02
-11.66010000 1.05108800e-02
-11.63010000 1.05319200e-02
-11.60010000 1.06286900e-02
-11.57010000 1.08290800e-02
-11.54010000 1.12058300e-02
-11.51010000 1.16573500e-02
-11.48010000 1.15530600e-02
-11.44760000 1.12001300e-02
-11.41760000 1.11044000e-02
-11.38760000 1.12202900e-02
-11.35760000 1.14855200e-02
-11.32760000 1.14940000e-02
-11.29760000 1.12294100e-02
-11.26760000 1.10666400e-02
-11.23760000 1.10049900e-02
-11.20760000 1.09931800e-02
-11.17760000 1.10059400e-02
-11.14760000 1.10321000e-02
-11.11760000 1.10663600e-02
-11.08760000 1.11060600e-02
-11.05760000 1.11498100e-02
-11.02760000 1.11968400e-02
-10.99760000 1.12467700e-02
-10.96760000 1.12994300e-02
-10.93760000 1.13548700e-02
-10.90760000 1.14132200e-02
-10.87760000 1.14748300e-02
-10.84760000 1.15401800e-02
-10.81760000 1.16099500e-02
-10.78760000 1.16851900e-02
-10.75760000 1.17675000e-02
-10.72760000 1.18595200e-02
-10.69760000 1.19657300e-02
-10.66760000 1.20914600e-02
-10.63760000 1.22327600e-02
-10.60760000 1.23996100e-02
-10.57760000 1.26328300e-02
-10.54760000 1.29762400e-02
-10.51760000 1.34731900e-02
-10.48760000 1.39726100e-02
-10.45760000 1.45764800e-02
-10.42760000 1.59013600e-02
-10.39760000 1.82636000e-02
-10.36760000 1.97871200e-02
-10.33760000 1.80743400e-02
-10.30760000 1.61563100e-02
-10.27760000 1.53226300e-02
-10.24760000 1.51905500e-02
-10.21760000 1.54107500e-02
-10.18760000 1.59072400e-02
-10.15760000 1.68955600e-02
-10.12760000 1.79426000e-02
-10.09760000 1.88404000e-02
-10.06760000 2.06881400e-02
-10.03760000 2.32884200e-02
-10.00760000 2.71878300e-02
-9.97764000 3.58159700e-02
-9.94764000 5.28713700e-02
-9.91515000 6.80471300e-02
-9.88515000 5.33905800e-02
-9.85515000 3.68519000e-02
-9.82515000 2.86874900e-02
-9.79515000 2.57593600e-02
-9.76515000 2.46508000e-02
-9.73515000 2.24302800e-02
-9.70515000 2.03683900e-02
-9.67515000 1.92323900e-02
-9.64515000 1.90106900e-02
-9.61515000 1.95919400e-02
-9.58515000 2.11543800e-02
-9.55515000 2.40543000e-02
-9.52515000 2.88877800e-02
-9.49515000 3.83744000e-02
-9.46515000 5.10864000e-02
-9.43515000 5.08790000e-02
-9.40515000 3.79911000e-02
-9.37515000 2.90383600e-02
-9.34515000 2.53011900e-02
-9.31515000 2.48097800e-02
-9.28515000 2.61931000e-02
-9.25515000 2.80485400e-02
-9.22515000 3.25466600e-02
-9.19515000 3.62139600e-02
-9.16515000 3.27947200e-02
-9.13515000 2.86604800e-02
-9.10515000 2.55345400e-02
-9.07515000 2.39695000e-02
-9.04515000 2.33049400e-02
-9.01515000 2.29635000e-02
-8.98515000 2.22494100e-02
-8.95515000 2.23968200e-02
-8.92515000 2.41861400e-02
-8.89515000 2.88153200e-02
-8.86515000 3.70779200e-02
-8.83515000 4.13158000e-02
-8.80515000 3.47821200e-02
-8.77515000 2.77407800e-02
-8.74515000 2.44005600e-02
-8.71515000 2.37693300e-02
-8.68515000 2.55619600e-02
-8.65515000 3.00536800e-02
-8.62515000 3.27438800e-02
-8.59515000 2.89770000e-02
-8.56515000 2.56358900e-02
-8.53515000 2.37776200e-02
-8.50515000 2.28953700e-02
-8.47515000 2.27423800e-02
-8.44515000 2.29675500e-02
-8.41515000 2.40131800e-02
-8.38266000 2.57569900e-02
-8.35266000 2.56318200e-02
-8.32266000 2.40123800e-02
-8.29266000 2.31724100e-02
-8.26266000 2.37191600e-02
-8.23266000 2.56887300e-02
-8.20266000 2.97702000e-02
-8.17266000 3.71892000e-02
-8.14266000 4.48055000e-02
-8.11266000 5.04986000e-02
-8.08266000 6.04425900e-02
-8.05266000 6.23535200e-02
-8.02266000 4.85613900e-02
-7.99266000 3.79091100e-02
-7.96266000 3.37638000e-02
-7.93266000 3.41497900e-02
-7.90266000 3.54461600e-02
-7.87266000 3.54492000e-02
-7.84266000 3.66169500e-02
-7.81266000 3.98766900e-02
-7.78266000 3.98151700e-02
-7.75266000 3.48554500e-02
-7.72266000 3.12152400e-02
-7.69266000 3.06471500e-02
-7.66266000 3.30944400e-02
-7.63266000 3.69204100e-02
-7.60266000 3.70913300e-02
-7.57266000 3.50466900e-02
-7.54266000 3.08214500e-02
-7.51266000 2.73836100e-02
-7.48266000 2.55697400e-02
-7.45266000 2.47947800e-02
-7.42266000 2.46328800e-02
-7.39266000 2.44383000e-02
-7.36266000 2.42117600e-02
-7.33266000 2.46952200e-02
-7.30266000 2.63159100e-02
-7.27266000 2.91274100e-02
-7.24266000 3.12852900e-02
-7.21266000 3.23520800e-02
-7.18266000 3.26917100e-02
-7.15266000 3.20804600e-02
-7.12266000 3.22552100e-02
-7.09266000 3.36569200e-02
-7.06266000 3.31757300e-02
-7.03266000 3.15156000e-02
-7.00266000 3.10129000e-02
-6.97266000 3.12542800e-02
-6.94266000 3.16223200e-02
-6.91266000 3.29768000e-02
-6.88266000 3.54726000e-02
-6.85017000 4.01858000e-02
-6.82017000 4.87139000e-02
-6.79017000 6.00801000e-02
-6.76017000 6.60622000e-02
-6.73017000 6.39940000e-02
-6.70017000 5.94770000e-02
-6.67017000 5.25462000e-02
-6.64017000 4.56200000e-02
-6.61017000 4.23098000e-02
-6.58017000 4.29392000e-02
-6.55017000 4.76515000e-02
-6.52017000 5.68357000e-02
-6.49017000 6.77577000e-02
-6.46017000 7.42531000e-02
-6.43017000 6.63367000e-02
-6.40017000 5.97468000e-02
-6.37017000 6.05558000e-02
-6.34017000 6.17051000e-02
-6.31017000 6.05715000e-02
-6.28017000 5.75847000e-02
-6.25017000 5.82991000e-02
-6.22017000 6.38885000e-02
-6.19017000 7.65977000e-02
-6.16017000 1.02780900e-01
-6.13017000 1.51809200e-01
-6.10017000 2.20309600e-01
-6.07017000 2.54009200e-01
-6.04017000 2.27429600e-01
-6.01017000 1.69975200e-01
-5.98017000 1.35842800e-01
-5.95017000 1.21467900e-01
-5.92017000 1.15998300e-01
-5.89017000 1.25114100e-01
-5.86017000 1.30664300e-01
-5.83017000 1.06435000e-01
-5.80017000 8.53647000e-02
-5.77017000 7.66062000e-02
-5.74017000 7.08651000e-02
-5.71017000 6.23601000e-02
-5.68017000 5.78731000e-02
-5.65017000 5.66725000e-02
-5.62017000 5.51314000e-02
-5.59017000 5.41466000e-02
-5.56017000 5.57509000e-02
-5.53017000 6.04751000e-02
-5.50017000 6.98903000e-02
-5.47017000 8.71433000e-02
-5.44017000 1.18848000e-01
-5.41017000 1.73889900e-01
-5.38017000 2.32015200e-01
-5.35017000 2.07267400e-01
-5.31768000 1.46435800e-01
-5.28768000 1.14374200e-01
-5.25768000 1.04887400e-01
-5.22768000 1.14836000e-01
-5.19768000 1.19951400e-01
-5.16768000 1.01566600e-01
-5.13768000 8.35312000e-02
-5.10768000 7.59093000e-02
-5.07768000 7.49568000e-02
-5.04768000 8.05463000e-02
-5.01768000 9.61983000e-02
-4.98768000 1.24621000e-01
-4.95768000 1.48616000e-01
-4.92768000 1.43349400e-01
-4.89768000 1.26106300e-01
-4.86768000 1.07353000e-01
-4.83768000 9.24285000e-02
-4.80768000 8.78178000e-02
-4.77768000 8.63264000e-02
-4.74768000 8.68814000e-02
-4.71768000 9.67910000e-02
-4.68768000 1.21131900e-01
-4.65768000 1.69230600e-01
-4.62768000 2.36581500e-01
-4.59768000 2.41848800e-01
-4.56768000 1.86246000e-01
-4.53768000 1.51231000e-01
-4.50768000 1.38576400e-01
-4.47768000 1.28713100e-01
-4.44768000 1.29750400e-01
-4.41768000 1.43870400e-01
-4.38768000 1.41492200e-01
-4.35768000 1.34919300e-01
-4.32768000 1.49997800e-01
-4.29768000 1.90305600e-01
-4.26768000 2.07445800e-01
-4.23768000 1.71431700e-01
-4.20768000 1.36962200e-01
-4.17768000 1.17996800e-01
-4.14768000 1.13604000e-01
-4.11768000 1.23408700e-01
-4.08768000 1.41664700e-01
-4.05768000 1.53760800e-01
-4.02768000 1.63879800e-01
-3.99768000 1.73541000e-01
-3.96768000 1.70928300e-01
-3.93768000 1.72174800e-01
-3.90768000 1.94492000e-01
-3.87768000 2.60987200e-01
-3.84768000 3.64423600e-01
-3.81768000 3.72237600e-01
-3.78520000 2.70686200e-01
-3.75520000 2.02241400e-01
-3.72520000 1.70237000e-01
-3.69520000 1.61222000e-01
-3.66520000 1.59390100e-01
-3.63520000 1.56287100e-01
-3.60520000 1.61003000e-01
-3.57520000 1.75355200e-01
-3.54520000 1.85557800e-01
-3.51520000 1.99864600e-01
-3.48520000 2.30731800e-01
-3.45520000 2.88510000e-01
-3.42520000 3.70813400e-01
-3.39520000 4.75615000e-01
-3.36520000 6.54175800e-01
-3.33520000 1.00564900e+00
-3.30520000 1.62486200e+00
-3.27520000 2.07596000e+00
-3.24520000 1.73209800e+00
-3.21520000 1.17588200e+00
-3.18520000 7.91837000e-01
-3.15520000 5.51163000e-01
-3.12520000 3.89447800e-01
-3.09520000 2.96523800e-01
-3.06520000 2.41250400e-01
-3.03520000 2.09032800e-01
-3.00520000 1.91410200e-01
-2.97520000 1.82833600e-01
-2.94520000 1.80856300e-01
-2.91520000 1.88308500e-01
-2.88520000 1.90661800e-01
-2.85520000 1.79751700e-01
-2.82520000 1.72941500e-01
-2.79520000 1.71825500e-01
-2.76520000 1.79537000e-01
-2.73520000 1.95928400e-01
-2.70520000 2.20295600e-01
-2.67520000 2.42812200e-01
-2.64520000 2.55858200e-01
-2.61520000 2.84982200e-01
-2.58520000 3.46283800e-01
-2.55520000 4.51941800e-01
-2.52520000 5.61952200e-01
-2.49520000 6.45680400e-01
-2.46520000 8.33013000e-01
-2.43520000 1.27803520e+00
-2.40520000 1.99279260e+00
-2.37520000 2.10632400e+00
-2.34520000 1.40900740e+00
-2.31520000 9.09464600e-01
-2.28520000 6.73292400e-01
-2.25271000 5.73513000e-01
-2.22271000 5.59438200e-01
-2.19271000 6.01138800e-01
-2.16271000 7.09408000e-01
-2.13271000 9.52498000e-01
-2.10271000 1.45945600e+00
-2.07271000 2.30156800e+00
-2.04271000 2.61531600e+00
-2.01271000 1.86365600e+00
-1.98271000 1.20375900e+00
-1.95271000 9.12605000e-01
-1.92271000 8.28615000e-01
-1.89271000 7.78420000e-01
-1.86271000 6.48020000e-01
-1.83271000 5.53804000e-01
-1.80271000 5.28049000e-01
-1.77271000 5.49845000e-01
-1.74271000 6.12525000e-01
-1.71271000 7.17287000e-01
-1.68271000 8.63228000e-01
-1.65271000 1.10247400e+00
-1.62271000 1.52686100e+00
-1.59271000 2.12459600e+00
-1.56271000 2.65853700e+00
-1.53271000 2.51645800e+00
-1.50271000 2.35197300e+00
-1.47271000 2.53243300e+00
-1.44271000 3.11883500e+00
-1.41271000 3.86799000e+00
-1.38271000 5.05103000e+00
-1.35271000 5.85501000e+00
-1.32271000 5.88869000e+00
-1.29271000 6.04427000e+00
-1.26271000 4.87689300e+00
-1.23271000 3.55608500e+00
-1.20271000 2.68731900e+00
-1.17271000 2.36746600e+00
-1.14271000 2.32064200e+00
-1.11271000 2.35856800e+00
-1.08271000 2.72646800e+00
-1.05271000 3.39300100e+00
-1.02271000 4.42474900e+00
-0.99270700 4.87371200e+00
-0.96270700 4.12217800e+00
-0.93270700 3.81230000e+00
-0.90270700 4.53877200e+00
-0.87270700 5.29399000e+00
-0.84270700 4.69117000e+00
-0.81270700 3.88466000e+00
-0.78270700 3.62052600e+00
-0.75270700 4.30994000e+00
-0.72021800 6.52450400e+00
-0.69021800 8.42705300e+00
-0.66021800 6.76605800e+00
-0.63021800 4.39608500e+00
-0.60021800 3.03474000e+00
-0.57021800 2.41710000e+00
-0.54021800 2.30206000e+00
-0.51021800 2.55257100e+00
-0.48021800 3.38405500e+00
-0.45021800 4.77026200e+00
-0.42021800 4.67318300e+00
-0.39021800 3.27429700e+00
-0.36021800 2.48787100e+00
-0.33021800 2.20604900e+00
-0.30021800 2.15451900e+00
-0.27021800 2.32887500e+00
-0.24021800 2.93721500e+00
-0.21021800 4.16057000e+00
-0.18021800 5.10455000e+00
-0.15021800 4.44332000e+00
-0.12021800 3.50383900e+00
-0.09021850 3.09696900e+00
-0.06021850 3.10464800e+00
-0.03021850 3.61159100e+00
-0.00021847 4.99011200e+00
0.02978150 7.88499100e+00
0.05978150 1.27615200e+01
0.08978150 1.43168130e+01
0.11978200 9.59080000e+00
0.14978200 5.51196000e+00
0.17978200 3.39316440e+00
0.20978200 2.31309810e+00
0.23978200 1.72046500e+00
0.26978200 1.35916900e+00
0.29978200 1.10327400e+00
0.32978200 9.17753400e-01
0.35978200 7.78161800e-01
0.38978200 6.80357800e-01
0.41978200 6.07969100e-01
0.44978200 5.59609200e-01
0.47978200 5.25694000e-01
0.50978200 4.91935400e-01
0.53978200 4.67585100e-01
0.56978200 4.64406000e-01
0.59978200 4.76583000e-01
0.62978200 4.74861000e-01
0.65978200 4.45955000e-01
0.68978200 4.36301700e-01
0.71978200 4.51692100e-01
0.74978200 4.76515200e-01
0.77978200 5.00305400e-01
