# E(MeV)  S_GAMTGAMT(Total=K0+2*K1) for Eu160_DDPCX
-4.70846000 -1.11708000e-03
-4.67846000 1.38399000e-03
-4.64846000 2.68121000e-03
-4.61846000 3.46410100e-03
-4.58846000 4.25254420e-03
-4.55846000 4.81985900e-03
-4.52846000 5.09152700e-03
-4.49846000 5.10155100e-03
-4.46846000 4.80340800e-03
-4.43846000 4.01258000e-03
-4.40846000 2.26192000e-03
-4.37846000 -1.47002000e-03
-4.34846000 -7.67714000e-03
-4.31846000 -8.97904000e-03
-4.28846000 -2.61349000e-03
-4.25846000 2.19821000e-03
-4.22846000 4.68817900e-03
-4.19846000 6.02895100e-03
-4.15638000 7.06442000e-03
-4.12638000 7.51917000e-03
-4.09638000 7.85256000e-03
-4.06638000 8.11198000e-03
-4.03638000 8.32345000e-03
-4.00638000 8.50194000e-03
-3.97638000 8.65640000e-03
-3.94638000 8.79214000e-03
-3.91638000 8.91214000e-03
-3.88638000 9.01778000e-03
-3.85638000 9.10907000e-03
-3.82638000 9.18475000e-03
-3.79638000 9.24226000e-03
-3.76638000 9.27732000e-03
-3.73638000 9.28343000e-03
-3.70638000 9.25094000e-03
-3.67638000 9.16544000e-03
-3.64638000 9.00519000e-03
-3.60431000 8.58676000e-03
-3.57431000 8.06867000e-03
-3.54431000 7.24767200e-03
-3.51431000 5.92642400e-03
-3.48431000 3.72925000e-03
-3.45431000 -1.12470000e-04
-3.42431000 -7.25524000e-03
-3.39431000 -2.08978140e-02
-3.36431000 -4.45774100e-02
-3.33431000 -7.63506600e-02
-3.30431000 -7.33854600e-02
-3.27431000 -3.76708000e-02
-3.24431000 -1.40558400e-02
-3.21431000 -2.29580000e-03
-3.18431000 3.30714000e-03
-3.15431000 5.48124500e-03
-3.12431000 6.76253500e-03
-3.09431000 1.06640600e-02
-3.05224000 1.80071200e-02
-3.02224000 2.21040000e-02
-2.99224000 2.59485400e-02
-2.96224000 3.01487000e-02
-2.93224000 3.52548000e-02
-2.90224000 4.20219600e-02
-2.87224000 5.18073800e-02
-2.84224000 6.71788800e-02
-2.81224000 8.98655200e-02
-2.78224000 1.08386800e-01
-2.75224000 1.22409980e-01
-2.72224000 1.52802400e-01
-2.69224000 2.16287200e-01
-2.66224000 3.43578600e-01
-2.63224000 5.99242400e-01
-2.60224000 9.80455200e-01
-2.57224000 1.00704540e+00
-2.54224000 6.92444000e-01
-2.50017000 3.53070800e-01
-2.47017000 2.18444600e-01
-2.44017000 1.46525200e-01
-2.41017000 1.06027500e-01
-2.38017000 8.14293000e-02
-2.35017000 6.54998400e-02
-2.32017000 5.46507600e-02
-2.29017000 4.69638600e-02
-2.26017000 4.13445600e-02
-2.23017000 3.71337400e-02
-2.20017000 3.39154600e-02
-2.17017000 3.14175400e-02
-2.14017000 2.94557400e-02
-2.11017000 2.79021200e-02
-2.08017000 2.66655400e-02
-2.05017000 2.56800000e-02
-2.02017000 2.48965600e-02
-1.99017000 2.42788600e-02
-1.94809000 2.36405000e-02
-1.91809000 2.33206800e-02
-1.88809000 2.30971200e-02
-1.85809000 2.29590900e-02
-1.82809000 2.28990400e-02
-1.79809000 2.29119900e-02
-1.76809000 2.29956100e-02
-1.73809000 2.31505900e-02
-1.70809000 2.33820700e-02
-1.67809000 2.37032500e-02
-1.64809000 2.41441200e-02
-1.61809000 2.47604700e-02
-1.58809000 2.55190000e-02
-1.55809000 2.60385600e-02
-1.52809000 2.64816600e-02
-1.49809000 2.71693000e-02
-1.46809000 2.81096200e-02
-1.43809000 2.93085800e-02
-1.39602000 3.15331600e-02
-1.36602000 3.36599200e-02
-1.33602000 3.64618200e-02
-1.30602000 4.02746800e-02
-1.27602000 4.56041400e-02
-1.24602000 5.35484000e-02
-1.21602000 6.65564000e-02
-1.18602000 8.98298000e-02
-1.15602000 1.33759400e-01
-1.12602000 1.98274000e-01
-1.09602000 2.11838800e-01
-1.06602000 1.86273400e-01
-1.03602000 2.06900600e-01
-1.00602000 2.90155400e-01
-0.97602000 3.49772800e-01
-0.94602000 2.84945600e-01
-0.91602000 2.32759200e-01
-0.88602000 1.86114400e-01
-0.84394800 1.30923600e-01
-0.81394800 1.02234100e-01
-0.78394800 7.89018000e-02
-0.75394800 6.54997000e-02
-0.72394800 5.80812000e-02
-0.69394800 5.38362000e-02
-0.66394800 5.14011000e-02
-0.63394800 5.00983000e-02
-0.60394800 4.95653000e-02
-0.57394800 4.95975000e-02
-0.54394800 5.00738800e-02
-0.51394800 5.09241000e-02
-0.48394800 5.21082600e-02
-0.45394800 5.36081700e-02
-0.42394800 5.54225100e-02
-0.39394800 5.75634100e-02
-0.36394800 6.00575200e-02
-0.33394800 6.29459900e-02
-0.29187500 6.77822700e-02
-0.26187500 7.19171300e-02
-0.23187500 7.67810800e-02
-0.20187500 8.25874100e-02
-0.17187500 8.96686500e-02
-0.14187500 9.85732900e-02
-0.11187500 1.10274210e-01
-0.08187500 1.26646440e-01
-0.05187500 1.51643970e-01
-0.02187500 1.94120280e-01
0.00812495 2.70825930e-01
0.03812500 3.69569550e-01
0.06812500 3.61574850e-01
0.09812500 2.92348410e-01
0.12812500 2.63737130e-01
0.15812500 2.70227590e-01
0.18812500 2.96007100e-01
0.21812500 3.23472900e-01
0.26019700 3.85997100e-01
0.29019700 4.61813800e-01
0.32019700 5.74164900e-01
0.35019700 7.47745200e-01
0.38019700 1.03003130e+00
0.41019700 1.52354260e+00
0.44019700 2.46027070e+00
0.47019700 4.25994760e+00
0.50019700 6.47498170e+00
0.53019700 6.26467700e+00
0.56019700 4.82038320e+00
0.59019700 3.51937180e+00
0.62019700 2.76431300e+00
0.65019700 2.47076700e+00
0.68019700 2.82817440e+00
0.71019700 4.14739830e+00
0.74019700 6.36387440e+00
0.77019700 6.37175040e+00
