# E(MeV)  S_GAMTGAMT(K=1) for Eu160_DDPCX
-4.70846000 1.62101000e-03
-4.67846000 1.82058000e-03
-4.64846000 1.87523000e-03
-4.61846000 1.91275000e-03
-4.58846000 2.09599000e-03
-4.55846000 2.26852000e-03
-4.52846000 2.37926000e-03
-4.49846000 2.45464000e-03
-4.46846000 2.51170000e-03
-4.43846000 2.55845000e-03
-4.40846000 2.59890000e-03
-4.37846000 2.63523000e-03
-4.34846000 2.66873000e-03
-4.31846000 2.70023000e-03
-4.28846000 2.73027000e-03
-4.25846000 2.75925000e-03
-4.22846000 2.78743000e-03
-4.19846000 2.81503000e-03
-4.15638000 2.85305000e-03
-4.12638000 2.87982000e-03
-4.09638000 2.90641000e-03
-4.06638000 2.93287000e-03
-4.03638000 2.95926000e-03
-4.00638000 2.98560000e-03
-3.97638000 3.01191000e-03
-3.94638000 3.03819000e-03
-3.91638000 3.06441000e-03
-3.88638000 3.09053000e-03
-3.85638000 3.11648000e-03
-3.82638000 3.14213000e-03
-3.79638000 3.16732000e-03
-3.76638000 3.19178000e-03
-3.73638000 3.21512000e-03
-3.70638000 3.23677000e-03
-3.67638000 3.25583000e-03
-3.64638000 3.27090000e-03
-3.60431000 3.28067000e-03
-3.57431000 3.27352000e-03
-3.54431000 3.24498000e-03
-3.51431000 3.17756000e-03
-3.48431000 3.03422000e-03
-3.45431000 2.73116000e-03
-3.42431000 2.08708000e-03
-3.39431000 9.77943000e-04
-3.36431000 6.39545000e-04
-3.33431000 1.78392000e-03
-3.30431000 2.70052000e-03
-3.27431000 3.16940000e-03
-3.24431000 3.39163000e-03
-3.21431000 3.44718000e-03
-3.18431000 3.32426000e-03
-3.15431000 3.15567000e-03
-3.12431000 3.44537000e-03
-3.09431000 3.88940000e-03
-3.05224000 4.29642000e-03
-3.02224000 4.50975000e-03
-2.99224000 4.71032000e-03
-2.96224000 4.92175000e-03
-2.93224000 5.16260000e-03
-2.90224000 5.45448000e-03
-2.87224000 5.83074000e-03
-2.84224000 6.35299000e-03
-2.81224000 7.14176000e-03
-2.78224000 8.32770000e-03
-2.75224000 9.42199000e-03
-2.72224000 1.00557000e-02
-2.69224000 1.13861000e-02
-2.66224000 1.41133000e-02
-2.63224000 1.92837000e-02
-2.60224000 2.94816000e-02
-2.57224000 4.95087000e-02
-2.54224000 7.36155000e-02
-2.50017000 5.29459000e-02
-2.47017000 3.15063000e-02
-2.44017000 2.03931000e-02
-2.41017000 1.47617000e-02
-2.38017000 1.16821000e-02
-2.35017000 9.86562000e-03
-2.32017000 8.72788000e-03
-2.29017000 7.98263000e-03
-2.26017000 7.47878000e-03
-2.23017000 7.13127000e-03
-2.20017000 6.88948000e-03
-2.17017000 6.72192000e-03
-2.14017000 6.60822000e-03
-2.11017000 6.53476000e-03
-2.08017000 6.49217000e-03
-2.05017000 6.47390000e-03
-2.02017000 6.47523000e-03
-1.99017000 6.49273000e-03
-1.94809000 6.53985000e-03
-1.91809000 6.58714000e-03
-1.88809000 6.64439000e-03
-1.85809000 6.71069000e-03
-1.82809000 6.78540000e-03
-1.79809000 6.86807000e-03
-1.76809000 6.95842000e-03
-1.73809000 7.05631000e-03
-1.70809000 7.16173000e-03
-1.67809000 7.27479000e-03
-1.64809000 7.39572000e-03
-1.61809000 7.52486000e-03
-1.58809000 7.66270000e-03
-1.55809000 7.80988000e-03
-1.52809000 7.96723000e-03
-1.49809000 8.13585000e-03
-1.46809000 8.31716000e-03
-1.43809000 8.51314000e-03
-1.39602000 8.81843000e-03
-1.36602000 9.06476000e-03
-1.33602000 9.34536000e-03
-1.30602000 9.66809000e-03
-1.27602000 9.99807000e-03
-1.24602000 1.03302000e-02
-1.21602000 1.07319000e-02
-1.18602000 1.12311000e-02
-1.15602000 1.18607000e-02
-1.12602000 1.26855000e-02
-1.09602000 1.38049000e-02
-1.06602000 1.52767000e-02
-1.03602000 1.73743000e-02
-1.00602000 2.09567000e-02
-0.97602000 2.76519000e-02
-0.94602000 4.05193000e-02
-0.91602000 5.76231000e-02
-0.88602000 5.69607000e-02
-0.84394800 4.41769000e-02
-0.81394800 3.51833000e-02
-0.78394800 2.68696000e-02
-0.75394800 2.23984000e-02
-0.72394800 2.02441000e-02
-0.69394800 1.92475000e-02
-0.66394800 1.88703000e-02
-0.63394800 1.88618000e-02
-0.60394800 1.90972000e-02
-0.57394800 1.95117000e-02
-0.54394800 2.00706000e-02
-0.51394800 2.07568000e-02
-0.48394800 2.15634000e-02
-0.45394800 2.24909000e-02
-0.42394800 2.35458000e-02
-0.39394800 2.47396000e-02
-0.36394800 2.60898000e-02
-0.33394800 2.76202000e-02
-0.29187500 3.01353000e-02
-0.26187500 3.22574000e-02
-0.23187500 3.47336000e-02
-0.20187500 3.76716000e-02
-0.17187500 4.12384000e-02
-0.14187500 4.57087000e-02
-0.11187500 5.15691000e-02
-0.08187500 5.97569000e-02
-0.05187500 7.22484000e-02
-0.02187500 9.34689000e-02
0.00812495 1.31791000e-01
0.03812500 1.81114000e-01
0.06812500 1.77040000e-01
0.09812500 1.42302000e-01
0.12812500 1.27779000e-01
0.15812500 1.30632000e-01
0.18812500 1.42998000e-01
0.21812500 1.56508000e-01
0.26019700 1.87241000e-01
0.29019700 2.24975000e-01
0.32019700 2.81723000e-01
0.35019700 3.68864000e-01
0.38019700 5.09993000e-01
0.41019700 7.56426000e-01
0.44019700 1.22407000e+00
0.47019700 2.12254000e+00
0.50019700 3.22776000e+00
0.53019700 3.11883000e+00
0.56019700 2.39425000e+00
0.59019700 1.74614000e+00
0.62019700 1.37149000e+00
0.65019700 1.22734000e+00
0.68019700 1.40761000e+00
0.71019700 2.06802000e+00
0.74019700 3.17667000e+00
0.77019700 3.18082000e+00
