# E(MeV)  S_GAMTGAMT(K=1) for Eu164_DDPCX
-6.56643000 2.15248000e-03
-6.53643000 2.16497000e-03
-6.50643000 2.17751000e-03
-6.47643000 2.19010000e-03
-6.44643000 2.20275000e-03
-6.41643000 2.21547000e-03
-6.38643000 2.22826000e-03
-6.35643000 2.24113000e-03
-6.32643000 2.25407000e-03
-6.29643000 2.26709000e-03
-6.26643000 2.28021000e-03
-6.23643000 2.29341000e-03
-6.20643000 2.30671000e-03
-6.17643000 2.32010000e-03
-6.14643000 2.33360000e-03
-6.11643000 2.34720000e-03
-6.08643000 2.36092000e-03
-6.05643000 2.37474000e-03
-6.02643000 2.38868000e-03
-5.99643000 2.40274000e-03
-5.96643000 2.41693000e-03
-5.93643000 2.43124000e-03
-5.90643000 2.44569000e-03
-5.87643000 2.46026000e-03
-5.82856000 2.48381000e-03
-5.79856000 2.49875000e-03
-5.76856000 2.51384000e-03
-5.73856000 2.52909000e-03
-5.70856000 2.54448000e-03
-5.67856000 2.56004000e-03
-5.64856000 2.57576000e-03
-5.61856000 2.59164000e-03
-5.58856000 2.60770000e-03
-5.55856000 2.62393000e-03
-5.52856000 2.64034000e-03
-5.49856000 2.65694000e-03
-5.46856000 2.67372000e-03
-5.43856000 2.69069000e-03
-5.40856000 2.70786000e-03
-5.37856000 2.72524000e-03
-5.34856000 2.74282000e-03
-5.31856000 2.76061000e-03
-5.28856000 2.77862000e-03
-5.25856000 2.79685000e-03
-5.22856000 2.81530000e-03
-5.19856000 2.83399000e-03
-5.16856000 2.85292000e-03
-5.13856000 2.87209000e-03
-5.09069000 2.90320000e-03
-5.06069000 2.92303000e-03
-5.03069000 2.94313000e-03
-5.00069000 2.96351000e-03
-4.97069000 2.98416000e-03
-4.94069000 3.00510000e-03
-4.91069000 3.02633000e-03
-4.88069000 3.04786000e-03
-4.85069000 3.06971000e-03
-4.82069000 3.09187000e-03
-4.79069000 3.11435000e-03
-4.76069000 3.13717000e-03
-4.73069000 3.16034000e-03
-4.70069000 3.18385000e-03
-4.67069000 3.20773000e-03
-4.64069000 3.23198000e-03
-4.61069000 3.25661000e-03
-4.58069000 3.28164000e-03
-4.55069000 3.30706000e-03
-4.52069000 3.33291000e-03
-4.49069000 3.35918000e-03
-4.46069000 3.38589000e-03
-4.43069000 3.41305000e-03
-4.40069000 3.44068000e-03
-4.35282000 3.48576000e-03
-4.32282000 3.51466000e-03
-4.29282000 3.54408000e-03
-4.26282000 3.57404000e-03
-4.23282000 3.60454000e-03
-4.20282000 3.63562000e-03
-4.17282000 3.66728000e-03
-4.14282000 3.69955000e-03
-4.11282000 3.73245000e-03
-4.08282000 3.76599000e-03
-4.05282000 3.80021000e-03
-4.02282000 3.83511000e-03
-3.99282000 3.87074000e-03
-3.96282000 3.90711000e-03
-3.93282000 3.94425000e-03
-3.90282000 3.98218000e-03
-3.87282000 4.02095000e-03
-3.84282000 4.06057000e-03
-3.81282000 4.10109000e-03
-3.78282000 4.14253000e-03
-3.75282000 4.18494000e-03
-3.72282000 4.22835000e-03
-3.69282000 4.27280000e-03
-3.66282000 4.31835000e-03
-3.61495000 4.39340000e-03
-3.58495000 4.44200000e-03
-3.55495000 4.49187000e-03
-3.52495000 4.54308000e-03
-3.49495000 4.59569000e-03
-3.46495000 4.64977000e-03
-3.43495000 4.70538000e-03
-3.40495000 4.76262000e-03
-3.37495000 4.82157000e-03
-3.34495000 4.88233000e-03
-3.31495000 4.94499000e-03
-3.28495000 5.00969000e-03
-3.25495000 5.07653000e-03
-3.22495000 5.14568000e-03
-3.19495000 5.21727000e-03
-3.16495000 5.29150000e-03
-3.13495000 5.36856000e-03
-3.10495000 5.44869000e-03
-3.07495000 5.53215000e-03
-3.04495000 5.61926000e-03
-3.01495000 5.71038000e-03
-2.98495000 5.80597000e-03
-2.95495000 5.90655000e-03
-2.92495000 6.01282000e-03
-2.87708000 6.19639000e-03
-2.84708000 6.32214000e-03
-2.81708000 6.45828000e-03
-2.78708000 6.60751000e-03
-2.75708000 6.77403000e-03
-2.72708000 6.96475000e-03
-2.69708000 7.19142000e-03
-2.66708000 7.46622000e-03
-2.63708000 7.78447000e-03
-2.60708000 8.19945000e-03
-2.57708000 8.83684000e-03
-2.54708000 9.86685000e-03
-2.51708000 1.12845000e-02
-2.48708000 1.31196000e-02
-2.45708000 1.60469000e-02
-2.42708000 1.67391000e-02
-2.39708000 1.43695000e-02
-2.36708000 1.28503000e-02
-2.33708000 1.19450000e-02
-2.30708000 1.15838000e-02
-2.27708000 1.17469000e-02
-2.24708000 1.23235000e-02
-2.21708000 1.33425000e-02
-2.18708000 1.50035000e-02
-2.13921000 2.04105000e-02
-2.10921000 2.78886000e-02
-2.07921000 4.24560000e-02
-2.04921000 6.12393000e-02
-2.01921000 5.62779000e-02
-1.98921000 3.75563000e-02
-1.95921000 2.63968000e-02
-1.92921000 2.10317000e-02
-1.89921000 1.84250000e-02
-1.86921000 1.71741000e-02
-1.83921000 1.66789000e-02
-1.80921000 1.66940000e-02
-1.77921000 1.71733000e-02
-1.74921000 1.82636000e-02
-1.71921000 2.03191000e-02
-1.68921000 2.31455000e-02
-1.65921000 2.35740000e-02
-1.62921000 2.17620000e-02
-1.59921000 2.08998000e-02
-1.56921000 2.09688000e-02
-1.53921000 2.15215000e-02
-1.50921000 2.23147000e-02
-1.47921000 2.33555000e-02
-1.44921000 2.46690000e-02
-1.40134000 2.74259000e-02
-1.37134000 2.97581000e-02
-1.34134000 3.29156000e-02
-1.31134000 3.76056000e-02
-1.28134000 4.48933000e-02
-1.25134000 5.26894000e-02
-1.22134000 5.29830000e-02
-1.19134000 5.06955000e-02
-1.16134000 5.13429000e-02
-1.13134000 5.43686000e-02
-1.10134000 5.90846000e-02
-1.07134000 6.53091000e-02
-1.04134000 7.31677000e-02
-1.01134000 8.28668000e-02
-0.98133900 9.48423000e-02
-0.95133900 1.10103000e-01
-0.92133900 1.29860000e-01
-0.89133900 1.55751000e-01
-0.86133900 1.90347000e-01
-0.83133900 2.37990000e-01
-0.80133900 3.04372000e-01
-0.77133900 4.02283000e-01
-0.74133900 5.58916000e-01
-0.71133900 8.26292000e-01
-0.66346900 1.82090000e+00
-0.63346900 3.28076000e+00
-0.60346900 5.17162000e+00
-0.57346900 4.64081000e+00
-0.54346900 2.69522000e+00
-0.51346900 1.51722000e+00
-0.48346900 9.27681000e-01
-0.45346900 6.15408000e-01
-0.42346900 4.35492000e-01
-0.39346900 3.23991000e-01
-0.36346900 2.50792000e-01
-0.33346900 2.00509000e-01
-0.30346900 1.64249000e-01
-0.27346900 1.37094000e-01
-0.24346900 1.16590000e-01
-0.21346900 1.00875000e-01
-0.18346900 8.86793000e-02
-0.15346900 7.92017000e-02
-0.12346900 7.20026000e-02
-0.09346940 6.70092000e-02
-0.06346940 6.46726000e-02
-0.03346940 6.60395000e-02
-0.00346942 7.07701000e-02
0.02653060 6.91156000e-02
0.07440030 5.58646000e-02
0.10440000 5.10263000e-02
0.13440000 4.54261000e-02
0.16440000 4.13611000e-02
0.19440000 3.91732000e-02
0.22440000 3.84456000e-02
0.25440000 3.91855000e-02
0.28440000 4.20178000e-02
0.31440000 4.78558000e-02
0.34440000 5.51808000e-02
0.37440000 6.17151000e-02
0.40440000 6.94350000e-02
0.43440000 9.01445000e-02
0.46440000 1.21246000e-01
0.49440000 1.13413000e-01
0.52440000 8.12631000e-02
0.55440000 6.23117000e-02
0.58440000 5.58881000e-02
0.61440000 5.66356000e-02
0.64440000 5.85803000e-02
0.67440000 6.49361000e-02
0.70440000 8.33538000e-02
0.73440000 1.08817000e-01
0.76440000 1.04565000e-01
