# E(MeV)  S_GAMTGAMT(K=0) for Eu164_DDPCX
-6.56643000 1.85912000e-03
-6.53643000 1.87689000e-03
-6.50643000 1.89386000e-03
-6.47643000 1.91020000e-03
-6.44643000 1.92601000e-03
-6.41643000 1.94137000e-03
-6.38643000 1.95635000e-03
-6.35643000 1.97100000e-03
-6.32643000 1.98535000e-03
-6.29643000 1.99945000e-03
-6.26643000 2.01332000e-03
-6.23643000 2.02700000e-03
-6.20643000 2.04051000e-03
-6.17643000 2.05387000e-03
-6.14643000 2.06710000e-03
-6.11643000 2.08022000e-03
-6.08643000 2.09325000e-03
-6.05643000 2.10620000e-03
-6.02643000 2.11909000e-03
-5.99643000 2.13193000e-03
-5.96643000 2.14473000e-03
-5.93643000 2.15750000e-03
-5.90643000 2.17026000e-03
-5.87643000 2.18300000e-03
-5.82856000 2.20334000e-03
-5.79856000 2.21610000e-03
-5.76856000 2.22888000e-03
-5.73856000 2.24169000e-03
-5.70856000 2.25454000e-03
-5.67856000 2.26742000e-03
-5.64856000 2.28036000e-03
-5.61856000 2.29334000e-03
-5.58856000 2.30639000e-03
-5.55856000 2.31950000e-03
-5.52856000 2.33268000e-03
-5.49856000 2.34594000e-03
-5.46856000 2.35928000e-03
-5.43856000 2.37271000e-03
-5.40856000 2.38623000e-03
-5.37856000 2.39985000e-03
-5.34856000 2.41357000e-03
-5.31856000 2.42739000e-03
-5.28856000 2.44133000e-03
-5.25856000 2.45539000e-03
-5.22856000 2.46957000e-03
-5.19856000 2.48389000e-03
-5.16856000 2.49833000e-03
-5.13856000 2.51292000e-03
-5.09069000 2.53649000e-03
-5.06069000 2.55147000e-03
-5.03069000 2.56661000e-03
-5.00069000 2.58191000e-03
-4.97069000 2.59739000e-03
-4.94069000 2.61305000e-03
-4.91069000 2.62890000e-03
-4.88069000 2.64494000e-03
-4.85069000 2.66119000e-03
-4.82069000 2.67764000e-03
-4.79069000 2.69432000e-03
-4.76069000 2.71122000e-03
-4.73069000 2.72836000e-03
-4.70069000 2.74575000e-03
-4.67069000 2.76340000e-03
-4.64069000 2.78131000e-03
-4.61069000 2.79950000e-03
-4.58069000 2.81799000e-03
-4.55069000 2.83678000e-03
-4.52069000 2.85588000e-03
-4.49069000 2.87533000e-03
-4.46069000 2.89512000e-03
-4.43069000 2.91528000e-03
-4.40069000 2.93584000e-03
-4.35282000 2.96949000e-03
-4.32282000 2.99116000e-03
-4.29282000 3.01332000e-03
-4.26282000 3.03599000e-03
-4.23282000 3.05922000e-03
-4.20282000 3.08306000e-03
-4.17282000 3.10758000e-03
-4.14282000 3.13287000e-03
-4.11282000 3.15904000e-03
-4.08282000 3.18628000e-03
-4.05282000 3.21488000e-03
-4.02282000 3.24529000e-03
-3.99282000 3.27839000e-03
-3.96282000 3.31589000e-03
-3.93282000 3.36149000e-03
-3.90282000 3.42360000e-03
-3.87282000 3.51679000e-03
-3.84282000 3.61794000e-03
-3.81282000 3.61447000e-03
-3.78282000 3.57467000e-03
-3.75282000 3.56802000e-03
-3.72282000 3.58376000e-03
-3.69282000 3.61075000e-03
-3.66282000 3.64404000e-03
-3.61495000 3.70535000e-03
-3.58495000 3.74773000e-03
-3.55495000 3.79286000e-03
-3.52495000 3.84070000e-03
-3.49495000 3.89137000e-03
-3.46495000 3.94503000e-03
-3.43495000 4.00193000e-03
-3.40495000 4.06240000e-03
-3.37495000 4.12683000e-03
-3.34495000 4.19571000e-03
-3.31495000 4.26963000e-03
-3.28495000 4.34935000e-03
-3.25495000 4.43583000e-03
-3.22495000 4.53037000e-03
-3.19495000 4.63477000e-03
-3.16495000 4.75165000e-03
-3.13495000 4.88520000e-03
-3.10495000 5.04263000e-03
-3.07495000 5.23765000e-03
-3.04495000 5.49919000e-03
-3.01495000 5.89092000e-03
-2.98495000 6.51069000e-03
-2.95495000 7.11803000e-03
-2.92495000 7.01000000e-03
-2.87708000 6.78425000e-03
-2.84708000 6.93110000e-03
-2.81708000 7.21169000e-03
-2.78708000 7.59729000e-03
-2.75708000 8.08841000e-03
-2.72708000 8.70363000e-03
-2.69708000 9.47846000e-03
-2.66708000 1.04710000e-02
-2.63708000 1.17759000e-02
-2.60708000 1.35524000e-02
-2.57708000 1.60853000e-02
-2.54708000 1.99220000e-02
-2.51708000 2.62051000e-02
-2.48708000 3.74883000e-02
-2.45708000 5.90405000e-02
-2.42708000 9.20147000e-02
-2.39708000 9.85360000e-02
-2.36708000 7.34146000e-02
-2.33708000 5.95657000e-02
-2.30708000 6.11698000e-02
-2.27708000 7.76164000e-02
-2.24708000 1.16241000e-01
-2.21708000 1.84008000e-01
-2.18708000 2.38435000e-01
-2.13921000 3.06565000e-01
-2.10921000 2.48341000e-01
-2.07921000 1.46267000e-01
-2.04921000 8.71035000e-02
-2.01921000 5.68772000e-02
-1.98921000 4.03726000e-02
-1.95921000 3.05848000e-02
-1.92921000 2.43655000e-02
-1.89921000 2.01958000e-02
-1.86921000 1.72849000e-02
-1.83921000 1.51946000e-02
-1.80921000 1.36723000e-02
-1.77921000 1.25738000e-02
-1.74921000 1.18339000e-02
-1.71921000 1.14723000e-02
-1.68921000 1.16297000e-02
-1.65921000 1.23372000e-02
-1.62921000 1.22058000e-02
-1.59921000 1.08973000e-02
-1.56921000 1.00066000e-02
-1.53921000 9.63761000e-03
-1.50921000 9.62378000e-03
-1.47921000 9.93831000e-03
-1.44921000 1.06955000e-02
-1.40134000 1.37514000e-02
-1.37134000 1.78514000e-02
-1.34134000 2.31832000e-02
-1.31134000 3.09860000e-02
-1.28134000 3.72757000e-02
-1.25134000 2.88408000e-02
-1.22134000 1.91415000e-02
-1.19134000 1.39800000e-02
-1.16134000 1.13887000e-02
-1.13134000 1.00316000e-02
-1.10134000 9.34866000e-03
-1.07134000 9.16002000e-03
-1.04134000 9.42396000e-03
-1.01134000 9.50660000e-03
-0.98133900 8.80671000e-03
-0.95133900 8.23006000e-03
-0.92133900 7.96581000e-03
-0.89133900 7.90654000e-03
-0.86133900 8.02249000e-03
-0.83133900 8.38187000e-03
-0.80133900 9.18258000e-03
-0.77133900 1.04661000e-02
-0.74133900 1.06302000e-02
-0.71133900 9.40221000e-03
-0.66346900 8.29687000e-03
-0.63346900 8.07407000e-03
-0.60346900 8.00621000e-03
-0.57346900 8.02691000e-03
-0.54346900 8.11047000e-03
-0.51346900 8.25112000e-03
-0.48346900 8.45691000e-03
-0.45346900 8.75168000e-03
-0.42346900 9.18574000e-03
-0.39346900 9.86317000e-03
-0.36346900 1.10051000e-02
-0.33346900 1.31165000e-02
-0.30346900 1.71968000e-02
-0.27346900 2.25700000e-02
-0.24346900 2.14454000e-02
-0.21346900 1.62577000e-02
-0.18346900 1.31833000e-02
-0.15346900 1.18034000e-02
-0.12346900 1.12946000e-02
-0.09346940 1.12993000e-02
-0.06346940 1.14546000e-02
-0.03346940 1.15204000e-02
-0.00346942 1.17357000e-02
0.02653060 1.21194000e-02
0.07440030 1.29135000e-02
0.10440000 1.36649000e-02
0.13440000 1.53340000e-02
0.16440000 1.79226000e-02
0.19440000 1.90459000e-02
0.22440000 1.92977000e-02
0.25440000 2.03613000e-02
0.28440000 1.93843000e-02
0.31440000 1.80829000e-02
0.34440000 1.79995000e-02
0.37440000 1.88928000e-02
0.40440000 2.04501000e-02
0.43440000 2.27849000e-02
0.46440000 2.67217000e-02
0.49440000 3.37240000e-02
0.52440000 4.69723000e-02
0.55440000 6.97410000e-02
0.58440000 8.29586000e-02
0.61440000 6.64884000e-02
0.64440000 5.26567000e-02
0.67440000 4.91234000e-02
0.70440000 5.27992000e-02
0.73440000 6.32929000e-02
0.76440000 8.37331000e-02
