# E(MeV)  S_GAMTGAMT(K=0) for Eu160_DDPCX
-4.70846000 -4.35910000e-03
-4.67846000 -2.25717000e-03
-4.64846000 -1.06925000e-03
-4.61846000 -3.61399000e-04
-4.58846000 6.05642000e-05
-4.55846000 2.82819000e-04
-4.52846000 3.33007000e-04
-4.49846000 1.92271000e-04
-4.46846000 -2.19992000e-04
-4.43846000 -1.10432000e-03
-4.40846000 -2.93588000e-03
-4.37846000 -6.74048000e-03
-4.34846000 -1.30146000e-02
-4.31846000 -1.43795000e-02
-4.28846000 -8.07403000e-03
-4.25846000 -3.32029000e-03
-4.22846000 -8.86681000e-04
-4.19846000 3.98891000e-04
-4.15638000 1.35832000e-03
-4.12638000 1.75953000e-03
-4.09638000 2.03974000e-03
-4.06638000 2.24624000e-03
-4.03638000 2.40493000e-03
-4.00638000 2.53074000e-03
-3.97638000 2.63258000e-03
-3.94638000 2.71576000e-03
-3.91638000 2.78332000e-03
-3.88638000 2.83672000e-03
-3.85638000 2.87611000e-03
-3.82638000 2.90049000e-03
-3.79638000 2.90762000e-03
-3.76638000 2.89376000e-03
-3.73638000 2.85319000e-03
-3.70638000 2.77740000e-03
-3.67638000 2.65378000e-03
-3.64638000 2.46339000e-03
-3.60431000 2.02542000e-03
-3.57431000 1.52163000e-03
-3.54431000 7.57712000e-04
-3.51431000 -4.28696000e-04
-3.48431000 -2.33919000e-03
-3.45431000 -5.57479000e-03
-3.42431000 -1.14294000e-02
-3.39431000 -2.28537000e-02
-3.36431000 -4.58565000e-02
-3.33431000 -7.99185000e-02
-3.30431000 -7.87865000e-02
-3.27431000 -4.40096000e-02
-3.24431000 -2.08391000e-02
-3.21431000 -9.19016000e-03
-3.18431000 -3.34138000e-03
-3.15431000 -8.30095000e-04
-3.12431000 -1.28205000e-04
-3.09431000 2.88526000e-03
-3.05224000 9.41428000e-03
-3.02224000 1.30845000e-02
-2.99224000 1.65279000e-02
-2.96224000 2.03052000e-02
-2.93224000 2.49296000e-02
-2.90224000 3.11130000e-02
-2.87224000 4.01459000e-02
-2.84224000 5.44729000e-02
-2.81224000 7.55820000e-02
-2.78224000 9.17314000e-02
-2.75224000 1.03566000e-01
-2.72224000 1.32691000e-01
-2.69224000 1.93515000e-01
-2.66224000 3.15352000e-01
-2.63224000 5.60675000e-01
-2.60224000 9.21492000e-01
-2.57224000 9.08028000e-01
-2.54224000 5.45213000e-01
-2.50017000 2.47179000e-01
-2.47017000 1.55432000e-01
-2.44017000 1.05739000e-01
-2.41017000 7.65041000e-02
-2.38017000 5.80651000e-02
-2.35017000 4.57686000e-02
-2.32017000 3.71950000e-02
-2.29017000 3.09986000e-02
-2.26017000 2.63870000e-02
-2.23017000 2.28712000e-02
-2.20017000 2.01365000e-02
-2.17017000 1.79737000e-02
-2.14017000 1.62393000e-02
-2.11017000 1.48326000e-02
-2.08017000 1.36812000e-02
-2.05017000 1.27322000e-02
-2.02017000 1.19461000e-02
-1.99017000 1.12934000e-02
-1.94809000 1.05608000e-02
-1.91809000 1.01464000e-02
-1.88809000 9.80834000e-03
-1.85809000 9.53771000e-03
-1.82809000 9.32824000e-03
-1.79809000 9.17585000e-03
-1.76809000 9.07877000e-03
-1.73809000 9.03797000e-03
-1.70809000 9.05861000e-03
-1.67809000 9.15367000e-03
-1.64809000 9.35268000e-03
-1.61809000 9.71075000e-03
-1.58809000 1.01936000e-02
-1.55809000 1.04188000e-02
-1.52809000 1.05472000e-02
-1.49809000 1.08976000e-02
-1.46809000 1.14753000e-02
-1.43809000 1.22823000e-02
-1.39602000 1.38963000e-02
-1.36602000 1.55304000e-02
-1.33602000 1.77711000e-02
-1.30602000 2.09385000e-02
-1.27602000 2.56080000e-02
-1.24602000 3.28880000e-02
-1.21602000 4.50926000e-02
-1.18602000 6.73676000e-02
-1.15602000 1.10038000e-01
-1.12602000 1.72903000e-01
-1.09602000 1.84229000e-01
-1.06602000 1.55720000e-01
-1.03602000 1.72152000e-01
-1.00602000 2.48242000e-01
-0.97602000 2.94469000e-01
-0.94602000 2.03907000e-01
-0.91602000 1.17513000e-01
-0.88602000 7.21930000e-02
-0.84394800 4.25698000e-02
-0.81394800 3.18675000e-02
-0.78394800 2.51626000e-02
-0.75394800 2.07029000e-02
-0.72394800 1.75930000e-02
-0.69394800 1.53412000e-02
-0.66394800 1.36605000e-02
-0.63394800 1.23747000e-02
-0.60394800 1.13709000e-02
-0.57394800 1.05741000e-02
-0.54394800 9.93268000e-03
-0.51394800 9.41050000e-03
-0.48394800 8.98146000e-03
-0.45394800 8.62637000e-03
-0.42394800 8.33091000e-03
-0.39394800 8.08421000e-03
-0.36394800 7.87792000e-03
-0.33394800 7.70559000e-03
-0.29187500 7.51167000e-03
-0.26187500 7.40233000e-03
-0.23187500 7.31388000e-03
-0.20187500 7.24421000e-03
-0.17187500 7.19185000e-03
-0.14187500 7.15589000e-03
-0.11187500 7.13601000e-03
-0.08187500 7.13264000e-03
-0.05187500 7.14717000e-03
-0.02187500 7.18248000e-03
0.00812495 7.24393000e-03
0.03812500 7.34155000e-03
0.06812500 7.49485000e-03
0.09812500 7.74441000e-03
0.12812500 8.17913000e-03
0.15812500 8.96359000e-03
0.18812500 1.00111000e-02
0.21812500 1.04569000e-02
0.26019700 1.15151000e-02
0.29019700 1.18638000e-02
0.32019700 1.07189000e-02
0.35019700 1.00172000e-02
0.38019700 1.00453000e-02
0.41019700 1.06906000e-02
0.44019700 1.21307000e-02
0.47019700 1.48676000e-02
0.50019700 1.94617000e-02
0.53019700 2.70170000e-02
0.56019700 3.18832000e-02
0.59019700 2.70918000e-02
0.62019700 2.13330000e-02
0.65019700 1.60870000e-02
0.68019700 1.29544000e-02
0.71019700 1.13583000e-02
0.74019700 1.05344000e-02
0.77019700 1.01104000e-02
