# E(MeV)  S_GAMTGAMT(K=0) for Fe60_DDPCX
-2.73759000 1.33583000e-03
-2.70759000 1.35603000e-03
-2.67759000 1.37633000e-03
-2.64759000 1.39675000e-03
-2.61759000 1.41729000e-03
-2.58759000 1.43797000e-03
-2.55759000 1.45879000e-03
-2.52759000 1.47975000e-03
-2.49759000 1.50088000e-03
-2.46759000 1.52218000e-03
-2.43759000 1.54366000e-03
-2.38260000 1.58353000e-03
-2.35260000 1.60557000e-03
-2.32260000 1.62782000e-03
-2.29260000 1.65030000e-03
-2.26260000 1.67301000e-03
-2.23260000 1.69597000e-03
-2.20260000 1.71918000e-03
-2.17260000 1.74266000e-03
-2.14260000 1.76642000e-03
-2.11260000 1.79045000e-03
-2.08260000 1.81479000e-03
-2.02762000 1.86020000e-03
-1.99762000 1.88544000e-03
-1.96762000 1.91101000e-03
-1.93762000 1.93694000e-03
-1.90762000 1.96323000e-03
-1.87762000 1.98990000e-03
-1.84762000 2.01696000e-03
-1.81762000 2.04442000e-03
-1.78762000 2.07230000e-03
-1.75762000 2.10061000e-03
-1.72762000 2.12937000e-03
-1.67263000 2.18328000e-03
-1.64263000 2.21338000e-03
-1.61263000 2.24398000e-03
-1.58263000 2.27511000e-03
-1.55263000 2.30677000e-03
-1.52263000 2.33900000e-03
-1.49263000 2.37180000e-03
-1.46263000 2.40519000e-03
-1.43263000 2.43920000e-03
-1.40263000 2.47385000e-03
-1.37263000 2.50915000e-03
-1.31765000 2.57564000e-03
-1.28765000 2.61293000e-03
-1.25765000 2.65098000e-03
-1.22765000 2.68979000e-03
-1.19765000 2.72941000e-03
-1.16765000 2.76986000e-03
-1.13765000 2.81116000e-03
-1.10765000 2.85336000e-03
-1.07765000 2.89648000e-03
-1.04765000 2.94056000e-03
-1.01765000 2.98562000e-03
-0.96266000 3.07091000e-03
-0.93266000 3.11899000e-03
-0.90266000 3.16820000e-03
-0.87266000 3.21860000e-03
-0.84266000 3.27023000e-03
-0.81266000 3.32314000e-03
-0.78266000 3.37737000e-03
-0.75266000 3.43298000e-03
-0.72266000 3.49003000e-03
-0.69266000 3.54858000e-03
-0.66266000 3.60868000e-03
-0.60767400 3.72309000e-03
-0.57767400 3.78796000e-03
-0.54767400 3.85466000e-03
-0.51767400 3.92326000e-03
-0.48767400 3.99385000e-03
-0.45767400 4.06651000e-03
-0.42767400 4.14135000e-03
-0.39767400 4.21846000e-03
-0.36767400 4.29795000e-03
-0.33767400 4.37993000e-03
-0.30767400 4.46453000e-03
-0.25268800 4.62678000e-03
-0.22268800 4.71949000e-03
-0.19268800 4.81535000e-03
-0.16268800 4.91452000e-03
-0.13268800 5.01717000e-03
-0.10268800 5.12350000e-03
-0.07268780 5.23369000e-03
-0.04268780 5.34797000e-03
-0.01268780 5.46657000e-03
0.01731220 5.58973000e-03
0.04731220 5.71772000e-03
0.10229800 5.96582000e-03
0.13229800 6.10913000e-03
0.16229800 6.25850000e-03
0.19229800 6.41432000e-03
0.22229800 6.57702000e-03
0.25229800 6.74704000e-03
0.28229800 6.92490000e-03
0.31229800 7.11114000e-03
0.34229800 7.30634000e-03
0.37229800 7.51117000e-03
0.40229800 7.72634000e-03
0.45728400 8.15023000e-03
0.48728400 8.39924000e-03
0.51728400 8.66209000e-03
0.54728400 8.93993000e-03
0.57728400 9.23404000e-03
0.60728400 9.54588000e-03
0.63728400 9.87704000e-03
0.66728400 1.02293000e-02
0.69728400 1.06048000e-02
0.72728400 1.10057000e-02
0.75728400 1.14346000e-02
