# E(MeV)  S_GAMTGAMT(Total=K0+2*K1) for Fe60_DDPCX
-2.73759000 3.94507000e-03
-2.70759000 4.08293000e-03
-2.67759000 4.22073000e-03
-2.64759000 4.35885000e-03
-2.61759000 4.49763000e-03
-2.58759000 4.63749000e-03
-2.55759000 4.77873000e-03
-2.52759000 4.92171000e-03
-2.49759000 5.06680000e-03
-2.46759000 5.21434000e-03
-2.43759000 5.36472000e-03
-2.38260000 5.64897000e-03
-2.35260000 5.80945000e-03
-2.32260000 5.97430000e-03
-2.29260000 6.14396000e-03
-2.26260000 6.31891000e-03
-2.23260000 6.49963000e-03
-2.20260000 6.68670000e-03
-2.17260000 6.88068000e-03
-2.14260000 7.08220000e-03
-2.11260000 7.29193000e-03
-2.08260000 7.51063000e-03
-2.02762000 7.93748000e-03
-1.99762000 8.18622000e-03
-1.96762000 8.44749000e-03
-1.93762000 8.72244000e-03
-1.90762000 9.01235000e-03
-1.87762000 9.31870000e-03
-1.84762000 9.64308000e-03
-1.81762000 9.98726000e-03
-1.78762000 1.03532800e-02
-1.75762000 1.07434100e-02
-1.72762000 1.11602100e-02
-1.67263000 1.20033400e-02
-1.64263000 1.25129000e-02
-1.61263000 1.30627000e-02
-1.58263000 1.36576500e-02
-1.55263000 1.43033700e-02
-1.52263000 1.50064200e-02
-1.49263000 1.57744400e-02
-1.46263000 1.66163900e-02
-1.43263000 1.75428400e-02
-1.40263000 1.85662700e-02
-1.37263000 1.97016300e-02
-1.31765000 2.21351600e-02
-1.28765000 2.36979300e-02
-1.25765000 2.54649800e-02
-1.22765000 2.74751900e-02
-1.19765000 2.97766100e-02
-1.16765000 3.24300600e-02
-1.13765000 3.55135600e-02
-1.10765000 3.91269600e-02
-1.07765000 4.34016800e-02
-1.04765000 4.85121600e-02
-1.01765000 5.46942200e-02
-0.96266000 6.99739100e-02
-0.93266000 8.14405900e-02
-0.90266000 9.62048000e-02
-0.87266000 1.15658200e-01
-0.84266000 1.41999830e-01
-0.81266000 1.78860940e-01
-0.78266000 2.32551370e-01
-0.75266000 3.14730980e-01
-0.72266000 4.48540030e-01
-0.69266000 6.83642580e-01
-0.66266000 1.13315668e+00
-0.60767400 3.16402309e+00
-0.57767400 3.53992796e+00
-0.54767400 2.25161466e+00
-0.51767400 1.25077126e+00
-0.48767400 7.43267850e-01
-0.45767400 4.81516510e-01
-0.42767400 3.34825350e-01
-0.39767400 2.45930460e-01
-0.36767400 1.88507550e-01
-0.33767400 1.49471730e-01
-0.30767400 1.21824530e-01
-0.25268800 8.86127800e-02
-0.22268800 7.63734900e-02
-0.19268800 6.67947500e-02
-0.16268800 5.91715200e-02
-0.13268800 5.30175700e-02
-0.10268800 4.79889000e-02
-0.07268780 4.38364900e-02
-0.04268780 4.03773700e-02
-0.01268780 3.74739700e-02
0.01731220 3.50213300e-02
0.04731220 3.29391200e-02
0.10229800 2.98842200e-02
0.13229800 2.85507300e-02
0.16229800 2.74079000e-02
0.19229800 2.64291200e-02
0.22229800 2.55926600e-02
0.25229800 2.48807200e-02
0.28229800 2.42786000e-02
0.31229800 2.37742200e-02
0.34229800 2.33575800e-02
0.37229800 2.30204500e-02
0.40229800 2.27560000e-02
0.45728400 2.24423500e-02
0.48728400 2.23570400e-02
0.51728400 2.23284100e-02
0.54728400 2.23542500e-02
0.57728400 2.24331000e-02
0.60728400 2.25641200e-02
0.63728400 2.27470400e-02
0.66728400 2.29822000e-02
0.69728400 2.32707200e-02
0.72728400 2.36140800e-02
0.75728400 2.40145600e-02
