# E(MeV)  S_NSDRNSDR(K=1) for Fe60_DDPCX
-2.73759000 -6.20248000e-03
-2.70759000 -6.10829000e-03
-2.67759000 -6.01477000e-03
-2.64759000 -5.92191000e-03
-2.61759000 -5.82971000e-03
-2.58759000 -5.73815000e-03
-2.55759000 -5.64723000e-03
-2.52759000 -5.55692000e-03
-2.49759000 -5.46722000e-03
-2.46759000 -5.37813000e-03
-2.43759000 -5.28963000e-03
-2.38260000 -5.12891000e-03
-2.35260000 -5.04203000e-03
-2.32260000 -4.95570000e-03
-2.29260000 -4.86992000e-03
-2.26260000 -4.78467000e-03
-2.23260000 -4.69996000e-03
-2.20260000 -4.61576000e-03
-2.17260000 -4.53207000e-03
-2.14260000 -4.44888000e-03
-2.11260000 -4.36618000e-03
-2.08260000 -4.28398000e-03
-2.02762000 -4.13453000e-03
-1.99762000 -4.05366000e-03
-1.96762000 -3.97324000e-03
-1.93762000 -3.89326000e-03
-1.90762000 -3.81373000e-03
-1.87762000 -3.73463000e-03
-1.84762000 -3.65596000e-03
-1.81762000 -3.57770000e-03
-1.78762000 -3.49986000e-03
-1.75762000 -3.42242000e-03
-1.72762000 -3.34538000e-03
-1.67263000 -3.20518000e-03
-1.64263000 -3.12923000e-03
-1.61263000 -3.05366000e-03
-1.58263000 -2.97844000e-03
-1.55263000 -2.90359000e-03
-1.52263000 -2.82910000e-03
-1.49263000 -2.75495000e-03
-1.46263000 -2.68114000e-03
-1.43263000 -2.60767000e-03
-1.40263000 -2.53452000e-03
-1.37263000 -2.46171000e-03
-1.31765000 -2.32906000e-03
-1.28765000 -2.25713000e-03
-1.25765000 -2.18550000e-03
-1.22765000 -2.11416000e-03
-1.19765000 -2.04312000e-03
-1.16765000 -1.97236000e-03
-1.13765000 -1.90189000e-03
-1.10765000 -1.83168000e-03
-1.07765000 -1.76175000e-03
-1.04765000 -1.69209000e-03
-1.01765000 -1.62268000e-03
-0.96266000 -1.49612000e-03
-0.93266000 -1.42742000e-03
-0.90266000 -1.35896000e-03
-0.87266000 -1.29074000e-03
-0.84266000 -1.22275000e-03
-0.81266000 -1.15498000e-03
-0.78266000 -1.08744000e-03
-0.75266000 -1.02011000e-03
-0.72266000 -9.52989000e-04
-0.69266000 -8.86079000e-04
-0.66266000 -8.19371000e-04
-0.60767400 -6.97615000e-04
-0.57767400 -6.31456000e-04
-0.54767400 -5.65482000e-04
-0.51767400 -4.99689000e-04
-0.48767400 -4.34071000e-04
-0.45767400 -3.68626000e-04
-0.42767400 -3.03348000e-04
-0.39767400 -2.38232000e-04
-0.36767400 -1.73275000e-04
-0.33767400 -1.08473000e-04
-0.30767400 -4.38198000e-05
-0.25268800 7.43055000e-05
-0.22268800 1.38557000e-04
-0.19268800 2.02676000e-04
-0.16268800 2.66666000e-04
-0.13268800 3.30531000e-04
-0.10268800 3.94275000e-04
-0.07268780 4.57904000e-04
-0.04268780 5.21420000e-04
-0.01268780 5.84829000e-04
0.01731220 6.48135000e-04
0.04731220 7.11343000e-04
0.10229800 8.26951000e-04
0.13229800 8.89901000e-04
0.16229800 9.52770000e-04
0.19229800 1.01556000e-03
0.22229800 1.07828000e-03
0.25229800 1.14093000e-03
0.28229800 1.20351000e-03
0.31229800 1.26604000e-03
0.34229800 1.32851000e-03
0.37229800 1.39093000e-03
0.40229800 1.45331000e-03
0.45728400 1.56753000e-03
0.48728400 1.62980000e-03
0.51728400 1.69205000e-03
0.54728400 1.75427000e-03
0.57728400 1.81648000e-03
0.60728400 1.87867000e-03
0.63728400 1.94086000e-03
0.66728400 2.00306000e-03
0.69728400 2.06525000e-03
0.72728400 2.12746000e-03
0.75728400 2.18968000e-03
