# E(MeV)  S_GAMTGAMT(K=1) for Fe60_DDPCX
-2.73759000 1.30462000e-03
-2.70759000 1.36345000e-03
-2.67759000 1.42220000e-03
-2.64759000 1.48105000e-03
-2.61759000 1.54017000e-03
-2.58759000 1.59976000e-03
-2.55759000 1.65997000e-03
-2.52759000 1.72098000e-03
-2.49759000 1.78296000e-03
-2.46759000 1.84608000e-03
-2.43759000 1.91053000e-03
-2.38260000 2.03272000e-03
-2.35260000 2.10194000e-03
-2.32260000 2.17324000e-03
-2.29260000 2.24683000e-03
-2.26260000 2.32295000e-03
-2.23260000 2.40183000e-03
-2.20260000 2.48376000e-03
-2.17260000 2.56901000e-03
-2.14260000 2.65789000e-03
-2.11260000 2.75074000e-03
-2.08260000 2.84792000e-03
-2.02762000 3.03864000e-03
-1.99762000 3.15039000e-03
-1.96762000 3.26824000e-03
-1.93762000 3.39275000e-03
-1.90762000 3.52456000e-03
-1.87762000 3.66440000e-03
-1.84762000 3.81306000e-03
-1.81762000 3.97142000e-03
-1.78762000 4.14049000e-03
-1.75762000 4.32140000e-03
-1.72762000 4.51542000e-03
-1.67263000 4.91003000e-03
-1.64263000 5.14976000e-03
-1.61263000 5.40936000e-03
-1.58263000 5.69127000e-03
-1.55263000 5.99830000e-03
-1.52263000 6.33371000e-03
-1.49263000 6.70132000e-03
-1.46263000 7.10560000e-03
-1.43263000 7.55182000e-03
-1.40263000 8.04621000e-03
-1.37263000 8.59624000e-03
-1.31765000 9.77976000e-03
-1.28765000 1.05425000e-02
-1.25765000 1.14070000e-02
-1.22765000 1.23927000e-02
-1.19765000 1.35236000e-02
-1.16765000 1.48301000e-02
-1.13765000 1.63512000e-02
-1.10765000 1.81368000e-02
-1.07765000 2.02526000e-02
-1.04765000 2.27858000e-02
-1.01765000 2.58543000e-02
-0.96266000 3.34515000e-02
-0.93266000 3.91608000e-02
-0.90266000 4.65183000e-02
-0.87266000 5.62198000e-02
-0.84266000 6.93648000e-02
-0.81266000 8.77689000e-02
-0.78266000 1.14587000e-01
-0.75266000 1.55649000e-01
-0.72266000 2.22525000e-01
-0.69266000 3.40047000e-01
-0.66266000 5.64774000e-01
-0.60767400 1.58015000e+00
-0.57767400 1.76807000e+00
-0.54767400 1.12388000e+00
-0.51767400 6.23424000e-01
-0.48767400 3.69637000e-01
-0.45767400 2.38725000e-01
-0.42767400 1.65342000e-01
-0.39767400 1.20856000e-01
-0.36767400 9.21048000e-02
-0.33767400 7.25459000e-02
-0.30767400 5.86800000e-02
-0.25268800 4.19930000e-02
-0.22268800 3.58270000e-02
-0.19268800 3.09897000e-02
-0.16268800 2.71285000e-02
-0.13268800 2.40002000e-02
-0.10268800 2.14327000e-02
-0.07268780 1.93014000e-02
-0.04268780 1.75147000e-02
-0.01268780 1.60037000e-02
0.01731220 1.47158000e-02
0.04731220 1.36107000e-02
0.10229800 1.19592000e-02
0.13229800 1.12208000e-02
0.16229800 1.05747000e-02
0.19229800 1.00074000e-02
0.22229800 9.50782000e-03
0.25229800 9.06684000e-03
0.28229800 8.67685000e-03
0.31229800 8.33154000e-03
0.34229800 8.02562000e-03
0.37229800 7.75464000e-03
0.40229800 7.51483000e-03
0.45728400 7.14606000e-03
0.48728400 6.97890000e-03
0.51728400 6.83316000e-03
0.54728400 6.70716000e-03
0.57728400 6.59953000e-03
0.60728400 6.50912000e-03
0.63728400 6.43500000e-03
0.66728400 6.37645000e-03
0.69728400 6.33296000e-03
0.72728400 6.30419000e-03
0.75728400 6.28998000e-03
