# E(MeV)  S_NSDRNSDR(K=0) for Fe61_DDPCX
-3.65921000 -4.88707000e-03
-3.62921000 -4.81347000e-03
-3.59921000 -4.74033000e-03
-3.56921000 -4.66767000e-03
-3.53921000 -4.59547000e-03
-3.50921000 -4.52373000e-03
-3.47921000 -4.45244000e-03
-3.44921000 -4.38158000e-03
-3.41921000 -4.31117000e-03
-3.38921000 -4.24118000e-03
-3.35921000 -4.17161000e-03
-3.32921000 -4.10246000e-03
-3.29921000 -4.03372000e-03
-3.26921000 -3.96538000e-03
-3.21207000 -3.83630000e-03
-3.18207000 -3.76910000e-03
-3.15207000 -3.70228000e-03
-3.12207000 -3.63583000e-03
-3.09207000 -3.56976000e-03
-3.06207000 -3.50404000e-03
-3.03207000 -3.43869000e-03
-3.00207000 -3.37369000e-03
-2.97207000 -3.30903000e-03
-2.94207000 -3.24472000e-03
-2.91207000 -3.18074000e-03
-2.88207000 -3.11709000e-03
-2.85207000 -3.05377000e-03
-2.82207000 -2.99077000e-03
-2.76492000 -2.87163000e-03
-2.73492000 -2.80954000e-03
-2.70492000 -2.74775000e-03
-2.67492000 -2.68625000e-03
-2.64492000 -2.62505000e-03
-2.61492000 -2.56414000e-03
-2.58492000 -2.50351000e-03
-2.55492000 -2.44316000e-03
-2.52492000 -2.38309000e-03
-2.49492000 -2.32329000e-03
-2.46492000 -2.26375000e-03
-2.43492000 -2.20448000e-03
-2.40492000 -2.14546000e-03
-2.37492000 -2.08670000e-03
-2.31777000 -1.97546000e-03
-2.28777000 -1.91741000e-03
-2.25777000 -1.85960000e-03
-2.22777000 -1.80203000e-03
-2.19777000 -1.74469000e-03
-2.16777000 -1.68757000e-03
-2.13777000 -1.63068000e-03
-2.10777000 -1.57400000e-03
-2.07777000 -1.51755000e-03
-2.04777000 -1.46130000e-03
-2.01777000 -1.40526000e-03
-1.98777000 -1.34943000e-03
-1.95777000 -1.29380000e-03
-1.92777000 -1.23836000e-03
-1.87062000 -1.13330000e-03
-1.84062000 -1.07842000e-03
-1.81062000 -1.02372000e-03
-1.78062000 -9.69209000e-04
-1.75062000 -9.14871000e-04
-1.72062000 -8.60708000e-04
-1.69062000 -8.06716000e-04
-1.66062000 -7.52891000e-04
-1.63062000 -6.99231000e-04
-1.60062000 -6.45732000e-04
-1.57062000 -5.92390000e-04
-1.54062000 -5.39204000e-04
-1.51062000 -4.86170000e-04
-1.48062000 -4.33284000e-04
-1.42347000 -3.32939000e-04
-1.39347000 -2.80468000e-04
-1.36347000 -2.28133000e-04
-1.33347000 -1.75931000e-04
-1.30347000 -1.23860000e-04
-1.27347000 -7.19174000e-05
-1.24347000 -2.00989000e-05
-1.21347000 3.15978000e-05
-1.18347000 8.31759000e-05
-1.15347000 1.34638000e-04
-1.12347000 1.85988000e-04
-1.09347000 2.37227000e-04
-1.06347000 2.88360000e-04
-1.03347000 3.39388000e-04
-0.97632400 4.36317000e-04
-0.94632400 4.87060000e-04
-0.91632400 5.37709000e-04
-0.88632400 5.88269000e-04
-0.85632400 6.38742000e-04
-0.82632400 6.89131000e-04
-0.79632400 7.39439000e-04
-0.76632400 7.89669000e-04
-0.73632400 8.39823000e-04
-0.70632400 8.89905000e-04
-0.67632400 9.39918000e-04
-0.64632400 9.89864000e-04
-0.61632400 1.03975000e-03
-0.58632400 1.08957000e-03
-0.52917500 1.18432000e-03
-0.49917500 1.23399000e-03
-0.46917500 1.28360000e-03
-0.43917500 1.33317000e-03
-0.40917500 1.38270000e-03
-0.37917500 1.43219000e-03
-0.34917500 1.48164000e-03
-0.31917500 1.53106000e-03
-0.28917500 1.58045000e-03
-0.25917500 1.62982000e-03
-0.22917500 1.67916000e-03
-0.19917500 1.72849000e-03
-0.16917500 1.77780000e-03
-0.13917500 1.82710000e-03
-0.08202700 1.92100000e-03
-0.05202700 1.97028000e-03
-0.02202700 2.01958000e-03
0.00797300 2.06888000e-03
0.03797300 2.11819000e-03
0.06797300 2.16752000e-03
0.09797300 2.21688000e-03
0.12797300 2.26626000e-03
0.15797300 2.31567000e-03
0.18797300 2.36512000e-03
0.21797300 2.41461000e-03
0.24797300 2.46415000e-03
0.27797300 2.51374000e-03
0.30797300 2.56339000e-03
0.36512200 2.65817000e-03
0.39512200 2.70804000e-03
0.42512200 2.75800000e-03
0.45512200 2.80806000e-03
0.48512200 2.85822000e-03
0.51512200 2.90850000e-03
0.54512200 2.95890000e-03
0.57512200 3.00944000e-03
0.60512200 3.06013000e-03
0.63512200 3.11098000e-03
0.66512200 3.16201000e-03
0.69512200 3.21322000e-03
0.72512200 3.26465000e-03
0.75512200 3.31630000e-03
