# E(MeV)  S_GAMTGAMT(Total=K0+2*K1) for Fe61_DDPCX
-3.65921000 1.64912200e-02
-3.62921000 1.45626100e-02
-3.59921000 1.18141700e-02
-3.56921000 8.16400000e-03
-3.53921000 3.67647000e-03
-3.50921000 -1.36928000e-03
-3.47921000 -6.46754000e-03
-3.44921000 -1.09777500e-02
-3.41921000 -1.43106000e-02
-3.38921000 -1.61204000e-02
-3.35921000 -1.63928900e-02
-3.32921000 -1.53910100e-02
-3.29921000 -1.35157100e-02
-3.26921000 -1.11701100e-02
-3.21207000 -6.47992000e-03
-3.18207000 -4.23375000e-03
-3.15207000 -2.23593000e-03
-3.12207000 -4.99490000e-04
-3.09207000 9.90038000e-04
-3.06207000 2.26078000e-03
-3.03207000 3.34611200e-03
-3.00207000 4.27994800e-03
-2.97207000 5.09447000e-03
-2.94207000 5.81950000e-03
-2.91207000 6.48270000e-03
-2.88207000 7.11061000e-03
-2.85207000 7.73007000e-03
-2.82207000 8.37046000e-03
-2.76492000 9.78503000e-03
-2.73492000 1.07364500e-02
-2.70492000 1.19549700e-02
-2.67492000 1.36165400e-02
-2.64492000 1.60461400e-02
-2.61492000 1.98960000e-02
-2.58492000 2.65886000e-02
-2.55492000 3.93558000e-02
-2.52492000 6.38586800e-02
-2.49492000 9.14489000e-02
-2.46492000 7.82228600e-02
-2.43492000 5.00233800e-02
-2.40492000 3.43726800e-02
-2.37492000 2.71744000e-02
-2.31777000 2.33329800e-02
-2.28777000 2.37312800e-02
-2.25777000 2.51051300e-02
-2.22777000 2.77885700e-02
-2.19777000 3.21994900e-02
-2.16777000 3.91191100e-02
-2.13777000 5.01470700e-02
-2.10777000 6.85983100e-02
-2.07777000 1.01756520e-01
-2.04777000 1.66278490e-01
-2.01777000 2.93185680e-01
-1.98777000 4.51514710e-01
-1.95777000 3.96931320e-01
-1.92777000 2.32833790e-01
-1.87062000 9.02302400e-02
-1.84062000 6.31903600e-02
-1.81062000 4.80798400e-02
-1.78062000 3.93402800e-02
-1.75062000 3.39695200e-02
-1.72062000 2.97174700e-02
-1.69062000 2.66906900e-02
-1.66062000 2.49484900e-02
-1.63062000 2.41739000e-02
-1.60062000 2.42027000e-02
-1.57062000 2.50233600e-02
-1.54062000 2.67605800e-02
-1.51062000 2.97110600e-02
-1.48062000 3.44530200e-02
-1.42347000 5.33524800e-02
-1.39347000 7.48367800e-02
-1.36347000 1.15831960e-01
-1.33347000 1.98009380e-01
-1.30347000 3.31099320e-01
-1.27347000 3.59016820e-01
-1.24347000 2.28508340e-01
-1.21347000 1.31431860e-01
-1.18347000 8.25527000e-02
-1.15347000 5.76248200e-02
-1.12347000 4.43042800e-02
-1.09347000 3.66858800e-02
-1.06347000 3.04547400e-02
-1.03347000 2.54750000e-02
-0.97632400 2.00296000e-02
-0.94632400 1.83530200e-02
-0.91632400 1.71223600e-02
-0.88632400 1.61998800e-02
-0.85632400 1.55003900e-02
-0.82632400 1.49685600e-02
-0.79632400 1.45669400e-02
-0.76632400 1.42695600e-02
-0.73632400 1.40581600e-02
-0.70632400 1.39200000e-02
-0.67632400 1.38464400e-02
-0.64632400 1.38321700e-02
-0.61632400 1.38748400e-02
-0.58632400 1.39751100e-02
-0.52917500 1.43435500e-02
-0.49917500 1.46516300e-02
-0.46917500 1.50669200e-02
-0.43917500 1.56298400e-02
-0.40917500 1.64107000e-02
-0.37917500 1.75381500e-02
-0.34917500 1.92631900e-02
-0.31917500 2.21150600e-02
-0.28917500 2.72880500e-02
-0.25917500 3.73692100e-02
-0.22917500 5.42221100e-02
-0.19917500 6.03991900e-02
-0.16917500 4.50914500e-02
-0.13917500 3.28852700e-02
-0.08202700 2.47523100e-02
-0.05202700 2.38505900e-02
-0.02202700 2.40509600e-02
0.00797300 2.51570800e-02
0.03797300 2.72088000e-02
0.06797300 3.04726800e-02
0.09797300 3.60482000e-02
0.12797300 4.62906000e-02
0.15797300 6.63084000e-02
0.18797300 1.02280100e-01
0.21797300 1.26575200e-01
0.24797300 9.74154000e-02
0.27797300 6.68854000e-02
0.30797300 5.21385000e-02
0.36512200 4.54978000e-02
0.39512200 4.77889800e-02
0.42512200 5.35432200e-02
0.45512200 6.40424600e-02
0.48512200 8.26381400e-02
0.51512200 1.17172480e-01
0.54512200 1.85559380e-01
0.57512200 3.13725780e-01
0.60512200 4.21072700e-01
0.63512200 3.20949480e-01
0.66512200 1.95510400e-01
0.69512200 1.32247800e-01
0.72512200 1.07242700e-01
0.75512200 9.60294000e-02
