# E(MeV)  S_NSDRNSDR(K=1) for Fe61_DDPCX
-3.65921000 -6.41122000e-03
-3.62921000 -6.30851000e-03
-3.59921000 -6.20659000e-03
-3.56921000 -6.10545000e-03
-3.53921000 -6.00506000e-03
-3.50921000 -5.90543000e-03
-3.47921000 -5.80653000e-03
-3.44921000 -5.70835000e-03
-3.41921000 -5.61089000e-03
-3.38921000 -5.51412000e-03
-3.35921000 -5.41804000e-03
-3.32921000 -5.32263000e-03
-3.29921000 -5.22789000e-03
-3.26921000 -5.13380000e-03
-3.21207000 -4.95633000e-03
-3.18207000 -4.86407000e-03
-3.15207000 -4.77243000e-03
-3.12207000 -4.68138000e-03
-3.09207000 -4.59092000e-03
-3.06207000 -4.50105000e-03
-3.03207000 -4.41174000e-03
-3.00207000 -4.32300000e-03
-2.97207000 -4.23480000e-03
-2.94207000 -4.14715000e-03
-2.91207000 -4.06003000e-03
-2.88207000 -3.97343000e-03
-2.85207000 -3.88734000e-03
-2.82207000 -3.80177000e-03
-2.76492000 -3.64011000e-03
-2.73492000 -3.55595000e-03
-2.70492000 -3.47227000e-03
-2.67492000 -3.38905000e-03
-2.64492000 -3.30628000e-03
-2.61492000 -3.22397000e-03
-2.58492000 -3.14209000e-03
-2.55492000 -3.06065000e-03
-2.52492000 -2.97963000e-03
-2.49492000 -2.89903000e-03
-2.46492000 -2.81884000e-03
-2.43492000 -2.73905000e-03
-2.40492000 -2.65966000e-03
-2.37492000 -2.58066000e-03
-2.31777000 -2.43122000e-03
-2.28777000 -2.35331000e-03
-2.25777000 -2.27576000e-03
-2.22777000 -2.19857000e-03
-2.19777000 -2.12172000e-03
-2.16777000 -2.04522000e-03
-2.13777000 -1.96905000e-03
-2.10777000 -1.89322000e-03
-2.07777000 -1.81770000e-03
-2.04777000 -1.74251000e-03
-2.01777000 -1.66762000e-03
-1.98777000 -1.59304000e-03
-1.95777000 -1.51875000e-03
-1.92777000 -1.44476000e-03
-1.87062000 -1.30460000e-03
-1.84062000 -1.23143000e-03
-1.81062000 -1.15853000e-03
-1.78062000 -1.08588000e-03
-1.75062000 -1.01350000e-03
-1.72062000 -9.41372000e-04
-1.69062000 -8.69490000e-04
-1.66062000 -7.97848000e-04
-1.63062000 -7.26443000e-04
-1.60062000 -6.55268000e-04
-1.57062000 -5.84318000e-04
-1.54062000 -5.13587000e-04
-1.51062000 -4.43070000e-04
-1.48062000 -3.72762000e-04
-1.42347000 -2.39387000e-04
-1.39347000 -1.69654000e-04
-1.36347000 -1.00110000e-04
-1.33347000 -3.07470000e-05
-1.30347000 3.84384000e-05
-1.27347000 1.07452000e-04
-1.24347000 1.76300000e-04
-1.21347000 2.44986000e-04
-1.18347000 3.13517000e-04
-1.15347000 3.81898000e-04
-1.12347000 4.50133000e-04
-1.09347000 5.18230000e-04
-1.06347000 5.86192000e-04
-1.03347000 6.54026000e-04
-0.97632400 7.82910000e-04
-0.94632400 8.50403000e-04
-0.91632400 9.17788000e-04
-0.88632400 9.85073000e-04
-0.85632400 1.05226000e-03
-0.82632400 1.11936000e-03
-0.79632400 1.18638000e-03
-0.76632400 1.25332000e-03
-0.73632400 1.32019000e-03
-0.70632400 1.38700000e-03
-0.67632400 1.45375000e-03
-0.64632400 1.52045000e-03
-0.61632400 1.58710000e-03
-0.58632400 1.65372000e-03
-0.52917500 1.78054000e-03
-0.49917500 1.84709000e-03
-0.46917500 1.91364000e-03
-0.43917500 1.98019000e-03
-0.40917500 2.04674000e-03
-0.37917500 2.11332000e-03
-0.34917500 2.17992000e-03
-0.31917500 2.24657000e-03
-0.28917500 2.31326000e-03
-0.25917500 2.38001000e-03
-0.22917500 2.44684000e-03
-0.19917500 2.51375000e-03
-0.16917500 2.58076000e-03
-0.13917500 2.64789000e-03
-0.08202700 2.77612000e-03
-0.05202700 2.84367000e-03
-0.02202700 2.91139000e-03
0.00797300 2.97931000e-03
0.03797300 3.04745000e-03
0.06797300 3.11585000e-03
0.09797300 3.18451000e-03
0.12797300 3.25348000e-03
0.15797300 3.32278000e-03
0.18797300 3.39246000e-03
0.21797300 3.46255000e-03
0.24797300 3.53309000e-03
0.27797300 3.60414000e-03
0.30797300 3.67576000e-03
0.36512200 3.81397000e-03
0.39512200 3.88762000e-03
0.42512200 3.96213000e-03
0.45512200 4.03761000e-03
0.48512200 4.11419000e-03
0.51512200 4.19202000e-03
0.54512200 4.27126000e-03
0.57512200 4.35211000e-03
0.60512200 4.43481000e-03
0.63512200 4.51965000e-03
0.66512200 4.60697000e-03
0.69512200 4.69718000e-03
0.72512200 4.79079000e-03
0.75512200 4.88845000e-03
