# E(MeV)  S_GAMTGAMT(K=0) for Fe61_DDPCX
-3.65921000 1.36722000e-03
-3.62921000 1.40135000e-03
-3.59921000 1.43601000e-03
-3.56921000 1.47132000e-03
-3.53921000 1.50739000e-03
-3.50921000 1.54436000e-03
-3.47921000 1.58238000e-03
-3.44921000 1.62159000e-03
-3.41921000 1.66220000e-03
-3.38921000 1.70440000e-03
-3.35921000 1.74843000e-03
-3.32921000 1.79457000e-03
-3.29921000 1.84313000e-03
-3.26921000 1.89449000e-03
-3.21207000 2.00176000e-03
-3.18207000 2.06413000e-03
-3.15207000 2.13161000e-03
-3.12207000 2.20517000e-03
-3.09207000 2.28598000e-03
-3.06207000 2.37552000e-03
-3.03207000 2.47566000e-03
-3.00207000 2.58884000e-03
-2.97207000 2.71823000e-03
-2.94207000 2.86806000e-03
-2.91207000 3.04404000e-03
-2.88207000 3.25407000e-03
-2.85207000 3.50929000e-03
-2.82207000 3.82586000e-03
-2.76492000 4.69593000e-03
-2.73492000 5.38201000e-03
-2.70492000 6.33863000e-03
-2.67492000 7.73420000e-03
-2.64492000 9.88610000e-03
-2.61492000 1.34387000e-02
-2.58492000 1.98058000e-02
-2.55492000 3.22093000e-02
-2.52492000 5.62983000e-02
-2.49492000 8.34095000e-02
-2.46492000 6.96199000e-02
-2.43492000 4.07461000e-02
-2.40492000 2.42731000e-02
-2.37492000 1.60483000e-02
-2.31777000 9.35368000e-03
-2.28777000 7.74422000e-03
-2.25777000 6.71387000e-03
-2.22777000 6.03237000e-03
-2.19777000 5.57389000e-03
-2.16777000 5.26571000e-03
-2.13777000 5.06387000e-03
-2.10777000 4.94091000e-03
-2.07777000 4.87932000e-03
-2.04777000 4.86789000e-03
-2.01777000 4.89968000e-03
-1.98777000 4.97071000e-03
-1.95777000 5.07932000e-03
-1.92777000 5.22579000e-03
-1.87062000 5.61844000e-03
-1.84062000 5.89336000e-03
-1.81062000 6.22564000e-03
-1.78062000 6.62668000e-03
-1.75062000 7.11212000e-03
-1.72062000 7.70347000e-03
-1.69062000 8.43057000e-03
-1.66062000 9.33557000e-03
-1.63062000 1.04792000e-02
-1.60062000 1.19513000e-02
-1.57062000 1.38887000e-02
-1.54062000 1.65077000e-02
-1.51062000 2.01650000e-02
-1.48062000 2.54799000e-02
-1.42347000 4.51980000e-02
-1.39347000 6.70032000e-02
-1.36347000 1.08260000e-01
-1.33347000 1.90647000e-01
-1.30347000 3.23898000e-01
-1.27347000 3.51927000e-01
-1.24347000 2.21472000e-01
-1.21347000 1.24368000e-01
-1.18347000 7.53246000e-02
-1.15347000 4.99644000e-02
-1.12347000 3.57159000e-02
-1.09347000 2.70702000e-02
-1.06347000 2.14866000e-02
-1.03347000 1.76977000e-02
-0.97632400 1.32374000e-02
-0.94632400 1.17436000e-02
-0.91632400 1.06072000e-02
-0.88632400 9.72852000e-03
-0.85632400 9.04027000e-03
-0.82632400 8.49608000e-03
-0.79632400 8.06306000e-03
-0.76632400 7.71742000e-03
-0.73632400 7.44164000e-03
-0.70632400 7.22260000e-03
-0.67632400 7.05038000e-03
-0.64632400 6.91735000e-03
-0.61632400 6.81762000e-03
-0.58632400 6.74663000e-03
-0.52917500 6.67867000e-03
-0.49917500 6.67361000e-03
-0.46917500 6.68728000e-03
-0.43917500 6.71844000e-03
-0.40917500 6.76622000e-03
-0.37917500 6.83009000e-03
-0.34917500 6.90979000e-03
-0.31917500 7.00540000e-03
-0.28917500 7.11725000e-03
-0.25917500 7.24601000e-03
-0.22917500 7.39271000e-03
-0.19917500 7.55879000e-03
-0.16917500 7.74625000e-03
-0.13917500 7.95787000e-03
-0.08202700 8.44393000e-03
-0.05202700 8.75771000e-03
-0.02202700 9.13280000e-03
0.00797300 9.59640000e-03
0.03797300 1.01152000e-02
0.06797300 1.05657000e-02
0.09797300 1.10934000e-02
0.12797300 1.18320000e-02
0.15797300 1.28766000e-02
0.18797300 1.42617000e-02
0.21797300 1.53446000e-02
0.24797300 1.60774000e-02
0.27797300 1.72890000e-02
0.30797300 1.91317000e-02
0.36512200 2.48802000e-02
0.39512200 2.97862000e-02
0.42512200 3.70383000e-02
0.45512200 4.83666000e-02
0.48512200 6.73461000e-02
0.51512200 1.01928000e-01
0.54512200 1.70065000e-01
0.57512200 2.97664000e-01
0.60512200 4.04030000e-01
0.63512200 3.02277000e-01
0.66512200 1.74014000e-01
0.69512200 1.05505000e-01
0.72512200 7.12235000e-02
0.75512200 5.27884000e-02
