# E(MeV)  S_GAMTGAMT(K=1) for Fe62_DDPCX
-4.98974000 -6.82831000e-02
-4.95974000 -2.29744000e-02
-4.92974000 1.88587000e-02
-4.89974000 5.38342000e-02
-4.86974000 8.03561000e-02
-4.83974000 9.84056000e-02
-4.80974000 1.08998000e-01
-4.77974000 1.13620000e-01
-4.74974000 1.13817000e-01
-4.71974000 1.10956000e-01
-4.68974000 1.06141000e-01
-4.65974000 1.00201000e-01
-4.62974000 9.37283000e-02
-4.59974000 8.71250000e-02
-4.56974000 8.06526000e-02
-4.53974000 7.44707000e-02
-4.50974000 6.86678000e-02
-4.47974000 6.32854000e-02
-4.44974000 5.83336000e-02
-4.40954000 5.23560000e-02
-4.37954000 4.83579000e-02
-4.34954000 4.47246000e-02
-4.31954000 4.14265000e-02
-4.28954000 3.84339000e-02
-4.25954000 3.57181000e-02
-4.22954000 3.32524000e-02
-4.19954000 3.10120000e-02
-4.16954000 2.89744000e-02
-4.13954000 2.71191000e-02
-4.10954000 2.54276000e-02
-4.07954000 2.38836000e-02
-4.04954000 2.24722000e-02
-4.01954000 2.11802000e-02
-3.98954000 1.99960000e-02
-3.95954000 1.89091000e-02
-3.92954000 1.79100000e-02
-3.89954000 1.69906000e-02
-3.86954000 1.61433000e-02
-3.82934000 1.51096000e-02
-3.79934000 1.44066000e-02
-3.76934000 1.37562000e-02
-3.73934000 1.31540000e-02
-3.70934000 1.25957000e-02
-3.67934000 1.20779000e-02
-3.64934000 1.15971000e-02
-3.61934000 1.11504000e-02
-3.58934000 1.07353000e-02
-3.55934000 1.03493000e-02
-3.52934000 9.99021000e-03
-3.49934000 9.65623000e-03
-3.46934000 9.34562000e-03
-3.43934000 9.05685000e-03
-3.40934000 8.78856000e-03
-3.37934000 8.53957000e-03
-3.34934000 8.30881000e-03
-3.31934000 8.09539000e-03
-3.28934000 7.89853000e-03
-3.24914000 7.65960000e-03
-3.21914000 7.49925000e-03
-3.18914000 7.35387000e-03
-3.15914000 7.22331000e-03
-3.12914000 7.10756000e-03
-3.09914000 7.00684000e-03
-3.06914000 6.92153000e-03
-3.03914000 6.85230000e-03
-3.00914000 6.80011000e-03
-2.97914000 6.76630000e-03
-2.94914000 6.75270000e-03
-2.91914000 6.76173000e-03
-2.88914000 6.79660000e-03
-2.85914000 6.86162000e-03
-2.82914000 6.96250000e-03
-2.79914000 7.10697000e-03
-2.76914000 7.30558000e-03
-2.73914000 7.57292000e-03
-2.70914000 7.92964000e-03
-2.66894000 8.60178000e-03
-2.63894000 9.31044000e-03
-2.60894000 1.02810000e-02
-2.57894000 1.16402000e-02
-2.54894000 1.36019000e-02
-2.51894000 1.65466000e-02
-2.48894000 2.11986000e-02
-2.45894000 2.90422000e-02
-2.42894000 4.33620000e-02
-2.39894000 7.16096000e-02
-2.36894000 1.25512000e-01
-2.33894000 1.76583000e-01
-2.30894000 1.37149000e-01
-2.27894000 7.87751000e-02
-2.24894000 4.68034000e-02
-2.21894000 3.07033000e-02
-2.18894000 2.19867000e-02
-2.15894000 1.68596000e-02
-2.12894000 1.36263000e-02
-2.08874000 1.09019000e-02
-2.05874000 9.56471000e-03
-2.02874000 8.59291000e-03
-1.99874000 7.87076000e-03
-1.96874000 7.32675000e-03
-1.93874000 6.91570000e-03
-1.90874000 6.60926000e-03
-1.87874000 6.39083000e-03
-1.84874000 6.25351000e-03
-1.81874000 6.20037000e-03
-1.78874000 6.24797000e-03
-1.75874000 6.43572000e-03
-1.72874000 6.84865000e-03
-1.69874000 7.67388000e-03
-1.66874000 9.34123000e-03
-1.63874000 1.27720000e-02
-1.60874000 1.84199000e-02
-1.57874000 1.96905000e-02
-1.54874000 1.40686000e-02
-1.50853000 8.92527000e-03
-1.47853000 7.21442000e-03
-1.44853000 6.29963000e-03
-1.41853000 5.76851000e-03
-1.38853000 5.43862000e-03
-1.35853000 5.22360000e-03
-1.32853000 5.07930000e-03
-1.29853000 4.98156000e-03
-1.26853000 4.91646000e-03
-1.23853000 4.87571000e-03
-1.20853000 4.85435000e-03
-1.17853000 4.84959000e-03
-1.14853000 4.86029000e-03
-1.11853000 4.88690000e-03
-1.08853000 4.93183000e-03
-1.05853000 5.00069000e-03
-1.02853000 5.10516000e-03
-0.99853500 5.27025000e-03
-0.96853500 5.55228000e-03
-0.92833300 6.33620000e-03
-0.89833300 7.22410000e-03
-0.86833300 7.22813000e-03
-0.83833300 6.56165000e-03
-0.80833300 6.24057000e-03
-0.77833300 6.26176000e-03
-0.74833300 6.56290000e-03
-0.71833300 7.24232000e-03
-0.68833300 8.61993000e-03
-0.65833300 1.09014000e-02
-0.62833300 1.17065000e-02
-0.59833300 9.85539000e-03
-0.56833300 8.57376000e-03
-0.53833300 8.30572000e-03
-0.50833300 8.86471000e-03
-0.47833300 1.04890000e-02
-0.44833300 1.31682000e-02
-0.41833300 1.34824000e-02
-0.38833300 1.09724000e-02
-0.34813200 9.00662000e-03
-0.31813200 8.55315000e-03
-0.28813200 8.54719000e-03
-0.25813200 8.88607000e-03
-0.22813200 9.64917000e-03
-0.19813200 1.09506000e-02
-0.16813200 1.23310000e-02
-0.13813200 1.35655000e-02
-0.10813200 1.33233000e-02
-0.07813230 1.22915000e-02
-0.04813230 1.20625000e-02
-0.01813230 1.23308000e-02
0.01186770 1.28584000e-02
0.04186770 1.37650000e-02
0.07186770 1.50859000e-02
0.10186800 1.68968000e-02
0.13186800 1.93688000e-02
0.16186800 2.28102000e-02
0.19186800 2.77659000e-02
0.23206900 3.86591000e-02
0.26206900 5.29269000e-02
0.29206900 7.82451000e-02
0.32206900 1.27135000e-01
0.35206900 2.23231000e-01
0.38206900 3.46152000e-01
0.41206900 3.09756000e-01
0.44206900 1.84230000e-01
0.47206900 1.09315000e-01
0.50206900 7.28285000e-02
0.53206900 5.50110000e-02
0.56206900 4.72193000e-02
0.59206900 4.68594000e-02
0.62206900 5.54031000e-02
0.65206900 7.65125000e-02
0.68206900 9.36786000e-02
0.71206900 7.65055000e-02
0.74206900 5.98456000e-02
0.77206900 5.01633000e-02
