# E(MeV)  S_GAMTGAMT(K=0) for Fe62_DDPCX
-4.98974000 2.19197000e-03
-4.95974000 2.23427000e-03
-4.92974000 2.27756000e-03
-4.89974000 2.32188000e-03
-4.86974000 2.36730000e-03
-4.83974000 2.41390000e-03
-4.80974000 2.46174000e-03
-4.77974000 2.51089000e-03
-4.74974000 2.56145000e-03
-4.71974000 2.61350000e-03
-4.68974000 2.66711000e-03
-4.65974000 2.72240000e-03
-4.62974000 2.77947000e-03
-4.59974000 2.83842000e-03
-4.56974000 2.89937000e-03
-4.53974000 2.96244000e-03
-4.50974000 3.02778000e-03
-4.47974000 3.09553000e-03
-4.44974000 3.16584000e-03
-4.40954000 3.26437000e-03
-4.37954000 3.34136000e-03
-4.34954000 3.42153000e-03
-4.31954000 3.50510000e-03
-4.28954000 3.59230000e-03
-4.25954000 3.68340000e-03
-4.22954000 3.77867000e-03
-4.19954000 3.87842000e-03
-4.16954000 3.98299000e-03
-4.13954000 4.09273000e-03
-4.10954000 4.20806000e-03
-4.07954000 4.32941000e-03
-4.04954000 4.45727000e-03
-4.01954000 4.59217000e-03
-3.98954000 4.73471000e-03
-3.95954000 4.88553000e-03
-3.92954000 5.04538000e-03
-3.89954000 5.21505000e-03
-3.86954000 5.39545000e-03
-3.82934000 5.65580000e-03
-3.79934000 5.86547000e-03
-3.76934000 6.08976000e-03
-3.73934000 6.33015000e-03
-3.70934000 6.58834000e-03
-3.67934000 6.86626000e-03
-3.64934000 7.16609000e-03
-3.61934000 7.49034000e-03
-3.58934000 7.84190000e-03
-3.55934000 8.22406000e-03
-3.52934000 8.64068000e-03
-3.49934000 9.09622000e-03
-3.46934000 9.59587000e-03
-3.43934000 1.01458000e-02
-3.40934000 1.07531000e-02
-3.37934000 1.14265000e-02
-3.34934000 1.21761000e-02
-3.31934000 1.30142000e-02
-3.28934000 1.39557000e-02
-3.24914000 1.54117000e-02
-3.21914000 1.66734000e-02
-3.18914000 1.81175000e-02
-3.15914000 1.97814000e-02
-3.12914000 2.17126000e-02
-3.09914000 2.39723000e-02
-3.06914000 2.66402000e-02
-3.03914000 2.98216000e-02
-3.00914000 3.36578000e-02
-2.97914000 3.83422000e-02
-2.94914000 4.41449000e-02
-2.91914000 5.14518000e-02
-2.88914000 6.08293000e-02
-2.85914000 7.31344000e-02
-2.82914000 8.97121000e-02
-2.79914000 1.12762000e-01
-2.76914000 1.46069000e-01
-2.73914000 1.96534000e-01
-2.70914000 2.77659000e-01
-2.66894000 4.88897000e-01
-2.63894000 8.22214000e-01
-2.60894000 1.48103000e+00
-2.57894000 2.35339000e+00
-2.54894000 2.14321000e+00
-2.51894000 1.25007000e+00
-2.48894000 7.02643000e-01
-2.45894000 4.28665000e-01
-2.42894000 2.83797000e-01
-2.39894000 2.00454000e-01
-2.36894000 1.48828000e-01
-2.33894000 1.14883000e-01
-2.30894000 9.14708000e-02
-2.27894000 7.46891000e-02
-2.24894000 6.22743000e-02
-2.21894000 5.28469000e-02
-2.18894000 4.55291000e-02
-2.15894000 3.97424000e-02
-2.12894000 3.50930000e-02
-2.08874000 3.01781000e-02
-2.05874000 2.72483000e-02
-2.02874000 2.48009000e-02
-1.99874000 2.27391000e-02
-1.96874000 2.09893000e-02
-1.93874000 1.94951000e-02
-1.90874000 1.82124000e-02
-1.87874000 1.71068000e-02
-1.84874000 1.61508000e-02
-1.81874000 1.53224000e-02
-1.78874000 1.46044000e-02
-1.75874000 1.39825000e-02
-1.72874000 1.34457000e-02
-1.69874000 1.29855000e-02
-1.66874000 1.25951000e-02
-1.63874000 1.22703000e-02
-1.60874000 1.20087000e-02
-1.57874000 1.18104000e-02
-1.54874000 1.16784000e-02
-1.50853000 1.16184000e-02
-1.47853000 1.16799000e-02
-1.44853000 1.18615000e-02
-1.41853000 1.22105000e-02
-1.38853000 1.28119000e-02
-1.35853000 1.38260000e-02
-1.32853000 1.55769000e-02
-1.29853000 1.87707000e-02
-1.26853000 2.50193000e-02
-1.23853000 3.73635000e-02
-1.20853000 5.31651000e-02
-1.17853000 4.84844000e-02
-1.14853000 3.24052000e-02
-1.11853000 2.28781000e-02
-1.08853000 1.83436000e-02
-1.05853000 1.62895000e-02
-1.02853000 1.56582000e-02
-0.99853500 1.62280000e-02
-0.96853500 1.84509000e-02
-0.92833300 2.60045000e-02
-0.89833300 3.10902000e-02
-0.86833300 2.57741000e-02
-0.83833300 1.93716000e-02
-0.80833300 1.60252000e-02
-0.77833300 1.44281000e-02
-0.74833300 1.36668000e-02
-0.71833300 1.33366000e-02
-0.68833300 1.32567000e-02
-0.65833300 1.33416000e-02
-0.62833300 1.35492000e-02
-0.59833300 1.38597000e-02
-0.56833300 1.42657000e-02
-0.53833300 1.47689000e-02
-0.50833300 1.53783000e-02
-0.47833300 1.61108000e-02
-0.44833300 1.69943000e-02
-0.41833300 1.80734000e-02
-0.38833300 1.94222000e-02
-0.34813200 2.19014000e-02
-0.31813200 2.46452000e-02
-0.28813200 2.88930000e-02
-0.25813200 3.55480000e-02
-0.22813200 4.17463000e-02
-0.19813200 4.31648000e-02
-0.16813200 4.71441000e-02
-0.13813200 5.83678000e-02
-0.10813200 8.04960000e-02
-0.07813230 1.04512000e-01
-0.04813230 9.83090000e-02
-0.01813230 8.61911000e-02
0.01186770 8.73285000e-02
0.04186770 1.00319000e-01
0.07186770 1.26077000e-01
0.10186800 1.71270000e-01
0.13186800 2.52609000e-01
0.16186800 4.09284000e-01
0.19186800 7.22459000e-01
0.23206900 1.29514000e+00
0.26206900 1.05628000e+00
0.29206900 6.04640000e-01
0.32206900 3.49768000e-01
0.35206900 2.22087000e-01
0.38206900 1.53767000e-01
0.41206900 1.14138000e-01
0.44206900 8.95683000e-02
0.47206900 7.35629000e-02
0.50206900 6.27926000e-02
0.53206900 5.54544000e-02
0.56206900 5.05531000e-02
0.59206900 4.75855000e-02
0.62206900 4.64373000e-02
0.65206900 4.74688000e-02
0.68206900 5.19140000e-02
0.71206900 6.28605000e-02
0.74206900 8.49534000e-02
0.77206900 1.04097000e-01
