# E(MeV)  S_NSDRNSDR(Total=K0+2*K1) for Fe63_DDPCX
-5.73411000 -1.59332200e-02
-5.70411000 -1.56505400e-02
-5.67411000 -1.53700600e-02
-5.64411000 -1.50917700e-02
-5.61411000 -1.48156000e-02
-5.58411000 -1.45415300e-02
-5.55411000 -1.42695200e-02
-5.52411000 -1.39995400e-02
-5.49411000 -1.37315700e-02
-5.46411000 -1.34655500e-02
-5.43411000 -1.32014500e-02
-5.40411000 -1.29392700e-02
-5.37411000 -1.26789200e-02
-5.34411000 -1.24204400e-02
-5.31411000 -1.21637500e-02
-5.28411000 -1.19088300e-02
-5.25411000 -1.16556600e-02
-5.22411000 -1.14041900e-02
-5.19411000 -1.11544200e-02
-5.16411000 -1.09063300e-02
-5.13411000 -1.06598400e-02
-5.07947000 -1.02150500e-02
-5.04947000 -9.97302000e-03
-5.01947000 -9.73255000e-03
-4.98947000 -9.49355000e-03
-4.95947000 -9.25606000e-03
-4.92947000 -9.02002000e-03
-4.89947000 -8.78539000e-03
-4.86947000 -8.55219000e-03
-4.83947000 -8.32036000e-03
-4.80947000 -8.08990000e-03
-4.77947000 -7.86077000e-03
-4.74947000 -7.63295000e-03
-4.71947000 -7.40645000e-03
-4.68947000 -7.18119000e-03
-4.65947000 -6.95719000e-03
-4.62947000 -6.73442000e-03
-4.59947000 -6.51286000e-03
-4.56947000 -6.29248000e-03
-4.53947000 -6.07328000e-03
-4.50947000 -5.85522000e-03
-4.47947000 -5.63829000e-03
-4.42484000 -5.24601000e-03
-4.39484000 -5.03214000e-03
-4.36484000 -4.81933000e-03
-4.33484000 -4.60754000e-03
-4.30484000 -4.39679000e-03
-4.27484000 -4.18702000e-03
-4.24484000 -3.97823000e-03
-4.21484000 -3.77041600e-03
-4.18484000 -3.56353700e-03
-4.15484000 -3.35758400e-03
-4.12484000 -3.15253300e-03
-4.09484000 -2.94837800e-03
-4.06484000 -2.74509600e-03
-4.03484000 -2.54269000e-03
-4.00484000 -2.34111600e-03
-3.97484000 -2.14037000e-03
-3.94484000 -1.94043500e-03
-3.91484000 -1.74129400e-03
-3.88484000 -1.54293300e-03
-3.85484000 -1.34533300e-03
-3.82484000 -1.14848300e-03
-3.77020000 -7.91834900e-04
-3.74020000 -5.97013200e-04
-3.71020000 -4.02880300e-04
-3.68020000 -2.09422000e-04
-3.65020000 -1.66240000e-05
-3.62020000 1.75529000e-04
-3.59020000 3.67050400e-04
-3.56020000 5.57954800e-04
-3.53020000 7.48256000e-04
-3.50020000 9.37971000e-04
-3.47020000 1.12711200e-03
-3.44020000 1.31569400e-03
-3.41020000 1.50372800e-03
-3.38020000 1.69123200e-03
-3.35020000 1.87821800e-03
-3.32020000 2.06470100e-03
-3.29020000 2.25069300e-03
-3.26020000 2.43621000e-03
-3.23020000 2.62126200e-03
-3.20020000 2.80587000e-03
-3.17020000 2.99003600e-03
-3.11556000 3.32438000e-03
-3.08556000 3.50740000e-03
-3.05556000 3.69005000e-03
-3.02556000 3.87231000e-03
-2.99556000 4.05423000e-03
-2.96556000 4.23579000e-03
-2.93556000 4.41703000e-03
-2.90556000 4.59796000e-03
-2.87556000 4.77860000e-03
-2.84556000 4.95894000e-03
-2.81556000 5.13900000e-03
-2.78556000 5.31882000e-03
-2.75556000 5.49840000e-03
-2.72556000 5.67774000e-03
-2.69556000 5.85688000e-03
-2.66556000 6.03580000e-03
-2.63556000 6.21455000e-03
-2.60556000 6.39312000e-03
-2.57556000 6.57154000e-03
-2.54556000 6.74983000e-03
-2.51556000 6.92799000e-03
-2.46092000 7.25220000e-03
-2.43092000 7.43010000e-03
-2.40092000 7.60794000e-03
-2.37092000 7.78571000e-03
-2.34092000 7.96348000e-03
-2.31092000 8.14123000e-03
-2.28092000 8.31898000e-03
-2.25092000 8.49677000e-03
-2.22092000 8.67459000e-03
-2.19092000 8.85250000e-03
-2.16092000 9.03047000e-03
-2.13092000 9.20855000e-03
-2.10092000 9.38677000e-03
-2.07092000 9.56513000e-03
-2.04092000 9.74365000e-03
-2.01092000 9.92236000e-03
-1.98092000 1.01013000e-02
-1.95092000 1.02804700e-02
-1.92092000 1.04599000e-02
-1.89092000 1.06396400e-02
-1.86092000 1.08197000e-02
-1.80628000 1.11485600e-02
-1.77628000 1.13296700e-02
-1.74628000 1.15112400e-02
-1.71628000 1.16932800e-02
-1.68628000 1.18758200e-02
-1.65628000 1.20589000e-02
-1.62628000 1.22425900e-02
-1.59628000 1.24269000e-02
-1.56628000 1.26118800e-02
-1.53628000 1.27975700e-02
-1.50628000 1.29840600e-02
-1.47628000 1.31713600e-02
-1.44628000 1.33595400e-02
-1.41628000 1.35486600e-02
-1.38628000 1.37388000e-02
-1.35628000 1.39299900e-02
-1.32628000 1.41223400e-02
-1.29628000 1.43159100e-02
-1.26628000 1.45108200e-02
-1.23628000 1.47071200e-02
-1.20628000 1.49049100e-02
-1.15164000 1.52693900e-02
-1.12164000 1.54720500e-02
-1.09164000 1.56766800e-02
-1.06164000 1.58834200e-02
-1.03164000 1.60924500e-02
-1.00164000 1.63039500e-02
-0.97164500 1.65180900e-02
-0.94164500 1.67351100e-02
-0.91164500 1.69552700e-02
-0.88164500 1.71787900e-02
-0.85164500 1.74060000e-02
-0.82164500 1.76372300e-02
-0.79164500 1.78728600e-02
-0.76164500 1.81132900e-02
-0.73164500 1.83590300e-02
-0.70164500 1.86105900e-02
-0.67164500 1.88686100e-02
-0.64164500 1.91337900e-02
-0.61164500 1.94069400e-02
-0.58164500 1.96890000e-02
-0.55164500 1.99810700e-02
-0.49700700 2.05430900e-02
-0.46700700 2.08711200e-02
-0.43700700 2.12154800e-02
-0.40700700 2.15786800e-02
-0.37700700 2.19638000e-02
-0.34700700 2.23745600e-02
-0.31700700 2.28156100e-02
-0.28700700 2.32928300e-02
-0.25700700 2.38136400e-02
-0.22700700 2.43877100e-02
-0.19700700 2.50277800e-02
-0.16700700 2.57508700e-02
-0.13700700 2.65804600e-02
-0.10700700 2.75494600e-02
-0.07700660 2.87056900e-02
-0.04700660 3.01207900e-02
-0.01700660 3.19061200e-02
0.01299340 3.42440000e-02
0.04299340 3.74486100e-02
0.07299340 4.20984600e-02
0.10299300 4.93416600e-02
0.15763200 7.93053300e-02
0.18763200 1.18944690e-01
0.21763200 1.79072540e-01
0.24763200 1.85215020e-01
0.27763200 1.30952800e-01
0.30763200 9.62493000e-02
0.33763200 8.42408000e-02
0.36763200 8.74145000e-02
0.39763200 1.06850600e-01
0.42763200 1.50987200e-01
0.45763200 2.02113500e-01
0.48763200 1.78845300e-01
0.51763200 1.30839500e-01
0.54763200 1.08898900e-01
0.57763200 1.07612100e-01
0.60763200 1.23376100e-01
0.63763200 1.62465700e-01
0.66763200 2.44385300e-01
0.69763200 3.81877300e-01
0.72763200 4.49552900e-01
0.75763200 4.17750000e-01
