# E(MeV)  S_NSDRNSDR(K=0) for Fe63_DDPCX
-5.73411000 -4.62284000e-03
-5.70411000 -4.53818000e-03
-5.67411000 -4.45414000e-03
-5.64411000 -4.37073000e-03
-5.61411000 -4.28792000e-03
-5.58411000 -4.20571000e-03
-5.55411000 -4.12408000e-03
-5.52411000 -4.04304000e-03
-5.49411000 -3.96257000e-03
-5.46411000 -3.88265000e-03
-5.43411000 -3.80329000e-03
-5.40411000 -3.72447000e-03
-5.37411000 -3.64618000e-03
-5.34411000 -3.56842000e-03
-5.31411000 -3.49117000e-03
-5.28411000 -3.41443000e-03
-5.25411000 -3.33818000e-03
-5.22411000 -3.26243000e-03
-5.19411000 -3.18716000e-03
-5.16411000 -3.11237000e-03
-5.13411000 -3.03804000e-03
-5.07947000 -2.90385000e-03
-5.04947000 -2.83080000e-03
-5.01947000 -2.75819000e-03
-4.98947000 -2.68601000e-03
-4.95947000 -2.61426000e-03
-4.92947000 -2.54292000e-03
-4.89947000 -2.47199000e-03
-4.86947000 -2.40147000e-03
-4.83947000 -2.33134000e-03
-4.80947000 -2.26160000e-03
-4.77947000 -2.19225000e-03
-4.74947000 -2.12327000e-03
-4.71947000 -2.05467000e-03
-4.68947000 -1.98643000e-03
-4.65947000 -1.91855000e-03
-4.62947000 -1.85102000e-03
-4.59947000 -1.78384000e-03
-4.56947000 -1.71700000e-03
-4.53947000 -1.65050000e-03
-4.50947000 -1.58432000e-03
-4.47947000 -1.51847000e-03
-4.42484000 -1.39935000e-03
-4.39484000 -1.33438000e-03
-4.36484000 -1.26971000e-03
-4.33484000 -1.20534000e-03
-4.30484000 -1.14127000e-03
-4.27484000 -1.07748000e-03
-4.24484000 -1.01397000e-03
-4.21484000 -9.50736000e-04
-4.18484000 -8.87777000e-04
-4.15484000 -8.25084000e-04
-4.12484000 -7.62653000e-04
-4.09484000 -7.00478000e-04
-4.06484000 -6.38556000e-04
-4.03484000 -5.76882000e-04
-4.00484000 -5.15450000e-04
-3.97484000 -4.54256000e-04
-3.94484000 -3.93295000e-04
-3.91484000 -3.32564000e-04
-3.88484000 -2.72057000e-04
-3.85484000 -2.11769000e-04
-3.82484000 -1.51697000e-04
-3.77020000 -4.28289000e-05
-3.74020000 1.66588000e-05
-3.71020000 7.59477000e-05
-3.68020000 1.35042000e-04
-3.65020000 1.93946000e-04
-3.62020000 2.52664000e-04
-3.59020000 3.11200000e-04
-3.56020000 3.69558000e-04
-3.53020000 4.27742000e-04
-3.50020000 4.85757000e-04
-3.47020000 5.43606000e-04
-3.44020000 6.01294000e-04
-3.41020000 6.58824000e-04
-3.38020000 7.16200000e-04
-3.35020000 7.73428000e-04
-3.32020000 8.30509000e-04
-3.29020000 8.87449000e-04
-3.26020000 9.44252000e-04
-3.23020000 1.00092000e-03
-3.20020000 1.05746000e-03
-3.17020000 1.11387000e-03
-3.11556000 1.21630000e-03
-3.08556000 1.27238000e-03
-3.05556000 1.32835000e-03
-3.02556000 1.38421000e-03
-2.99556000 1.43997000e-03
-2.96556000 1.49563000e-03
-2.93556000 1.55119000e-03
-2.90556000 1.60666000e-03
-2.87556000 1.66204000e-03
-2.84556000 1.71734000e-03
-2.81556000 1.77256000e-03
-2.78556000 1.82770000e-03
-2.75556000 1.88278000e-03
-2.72556000 1.93778000e-03
-2.69556000 1.99272000e-03
-2.66556000 2.04760000e-03
-2.63556000 2.10243000e-03
-2.60556000 2.15720000e-03
-2.57556000 2.21192000e-03
-2.54556000 2.26661000e-03
-2.51556000 2.32125000e-03
-2.46092000 2.42068000e-03
-2.43092000 2.47524000e-03
-2.40092000 2.52978000e-03
-2.37092000 2.58429000e-03
-2.34092000 2.63880000e-03
-2.31092000 2.69329000e-03
-2.28092000 2.74778000e-03
-2.25092000 2.80227000e-03
-2.22092000 2.85677000e-03
-2.19092000 2.91128000e-03
-2.16092000 2.96581000e-03
-2.13092000 3.02035000e-03
-2.10092000 3.07493000e-03
-2.07092000 3.12953000e-03
-2.04092000 3.18417000e-03
-2.01092000 3.23886000e-03
-1.98092000 3.29360000e-03
-1.95092000 3.34839000e-03
-1.92092000 3.40324000e-03
-1.89092000 3.45816000e-03
-1.86092000 3.51316000e-03
-1.80628000 3.61354000e-03
-1.77628000 3.66879000e-03
-1.74628000 3.72414000e-03
-1.71628000 3.77960000e-03
-1.68628000 3.83518000e-03
-1.65628000 3.89088000e-03
-1.62628000 3.94673000e-03
-1.59628000 4.00272000e-03
-1.56628000 4.05886000e-03
-1.53628000 4.11517000e-03
-1.50628000 4.17166000e-03
-1.47628000 4.22834000e-03
-1.44628000 4.28522000e-03
-1.41628000 4.34230000e-03
-1.38628000 4.39962000e-03
-1.35628000 4.45717000e-03
-1.32628000 4.51498000e-03
-1.29628000 4.57305000e-03
-1.26628000 4.63142000e-03
-1.23628000 4.69008000e-03
-1.20628000 4.74907000e-03
-1.15164000 4.85739000e-03
-1.12164000 4.91739000e-03
-1.09164000 4.97780000e-03
-1.06164000 5.03864000e-03
-1.03164000 5.09993000e-03
-1.00164000 5.16171000e-03
-0.97164500 5.22401000e-03
-0.94164500 5.28685000e-03
-0.91164500 5.35029000e-03
-0.88164500 5.41435000e-03
-0.85164500 5.47908000e-03
-0.82164500 5.54453000e-03
-0.79164500 5.61074000e-03
-0.76164500 5.67777000e-03
-0.73164500 5.74569000e-03
-0.70164500 5.81455000e-03
-0.67164500 5.88443000e-03
-0.64164500 5.95541000e-03
-0.61164500 6.02758000e-03
-0.58164500 6.10102000e-03
-0.55164500 6.17585000e-03
-0.49700700 6.31611000e-03
-0.46700700 6.39554000e-03
-0.43700700 6.47688000e-03
-0.40700700 6.56032000e-03
-0.37700700 6.64606000e-03
-0.34700700 6.73432000e-03
-0.31700700 6.82537000e-03
-0.28700700 6.91949000e-03
-0.25700700 7.01702000e-03
-0.22700700 7.11833000e-03
-0.19700700 7.22388000e-03
-0.16700700 7.33415000e-03
-0.13700700 7.44974000e-03
-0.10700700 7.57132000e-03
-0.07700660 7.69969000e-03
-0.04700660 7.83579000e-03
-0.01700660 7.98072000e-03
0.01299340 8.13580000e-03
0.04299340 8.30261000e-03
0.07299340 8.48306000e-03
0.10299300 8.67946000e-03
0.15763200 9.08793000e-03
0.18763200 9.34709000e-03
0.21763200 9.63754000e-03
0.24763200 9.96622000e-03
0.27763200 1.03422000e-02
0.30763200 1.07777000e-02
0.33763200 1.12894000e-02
0.36763200 1.19017000e-02
0.39763200 1.26518000e-02
0.42763200 1.36016000e-02
0.45763200 1.48551000e-02
0.48763200 1.64859000e-02
0.51763200 1.82069000e-02
0.54763200 2.02031000e-02
0.57763200 2.31707000e-02
0.60763200 2.76251000e-02
0.63763200 3.44609000e-02
0.66763200 4.54797000e-02
0.69763200 6.41453000e-02
0.72763200 9.81469000e-02
0.75763200 1.65760000e-01
