# E(MeV)  S_GAMTGAMT(K=1) for Fe63_DDPCX
-5.73411000 -6.50762000e-03
-5.70411000 -6.38696000e-03
-5.67411000 -6.23678000e-03
-5.64411000 -6.05243000e-03
-5.61411000 -5.82868000e-03
-5.58411000 -5.55892000e-03
-5.55411000 -5.23397000e-03
-5.52411000 -4.84019000e-03
-5.49411000 -4.35603000e-03
-5.46411000 -3.74582000e-03
-5.43411000 -2.94735000e-03
-5.40411000 -1.84586000e-03
-5.37411000 -2.14828000e-04
-5.34411000 2.42792000e-03
-5.31411000 7.17663000e-03
-5.28411000 1.63680000e-02
-5.25411000 3.11695000e-02
-5.22411000 3.49472000e-02
-5.19411000 2.13020000e-02
-5.16411000 1.12154000e-02
-5.13411000 6.56892000e-03
-5.07947000 5.02341000e-03
-5.04947000 7.08948000e-03
-5.01947000 1.02383000e-02
-4.98947000 8.84382000e-03
-4.95947000 5.08982000e-03
-4.92947000 2.90207000e-03
-4.89947000 1.85912000e-03
-4.86947000 1.36245000e-03
-4.83947000 1.13203000e-03
-4.80947000 1.04153000e-03
-4.77947000 1.02959000e-03
-4.74947000 1.06391000e-03
-4.71947000 1.12621000e-03
-4.68947000 1.20558000e-03
-4.65947000 1.29518000e-03
-4.62947000 1.39058000e-03
-4.59947000 1.48886000e-03
-4.56947000 1.58803000e-03
-4.53947000 1.68676000e-03
-4.50947000 1.78417000e-03
-4.47947000 1.87965000e-03
-4.42484000 2.04752000e-03
-4.39484000 2.13610000e-03
-4.36484000 2.22208000e-03
-4.33484000 2.30551000e-03
-4.30484000 2.38650000e-03
-4.27484000 2.46519000e-03
-4.24484000 2.54176000e-03
-4.21484000 2.61640000e-03
-4.18484000 2.68935000e-03
-4.15484000 2.76083000e-03
-4.12484000 2.83109000e-03
-4.09484000 2.90041000e-03
-4.06484000 2.96906000e-03
-4.03484000 3.03733000e-03
-4.00484000 3.10552000e-03
-3.97484000 3.17398000e-03
-3.94484000 3.24303000e-03
-3.91484000 3.31304000e-03
-3.88484000 3.38442000e-03
-3.85484000 3.45759000e-03
-3.82484000 3.53302000e-03
-3.77020000 3.67795000e-03
-3.74020000 3.76277000e-03
-3.71020000 3.85220000e-03
-3.68020000 3.94708000e-03
-3.65020000 4.04838000e-03
-3.62020000 4.15722000e-03
-3.59020000 4.27494000e-03
-3.56020000 4.40315000e-03
-3.53020000 4.54378000e-03
-3.50020000 4.69921000e-03
-3.47020000 4.87239000e-03
-3.44020000 5.06702000e-03
-3.41020000 5.28785000e-03
-3.38020000 5.54100000e-03
-3.35020000 5.83460000e-03
-3.32020000 6.17955000e-03
-3.29020000 6.59091000e-03
-3.26020000 7.08994000e-03
-3.23020000 7.70760000e-03
-3.20020000 8.49050000e-03
-3.17020000 9.51168000e-03
-3.11556000 1.24338000e-02
-3.08556000 1.51208000e-02
-3.05556000 1.93502000e-02
-3.02556000 2.65739000e-02
-2.99556000 4.00846000e-02
-2.96556000 6.64517000e-02
-2.93556000 1.03908000e-01
-2.90556000 1.01708000e-01
-2.87556000 6.68261000e-02
-2.84556000 4.57405000e-02
-2.81556000 3.76456000e-02
-2.78556000 3.72033000e-02
-2.75556000 4.31479000e-02
-2.72556000 5.78726000e-02
-2.69556000 8.92003000e-02
-2.66556000 1.52517000e-01
-2.63556000 2.32003000e-01
-2.60556000 2.04002000e-01
-2.57556000 1.20758000e-01
-2.54556000 7.13588000e-02
-2.51556000 4.67796000e-02
-2.46092000 2.80717000e-02
-2.43092000 2.42266000e-02
-2.40092000 2.26180000e-02
-2.37092000 2.03544000e-02
-2.34092000 1.76722000e-02
-2.31092000 1.61941000e-02
-2.28092000 1.58017000e-02
-2.25092000 1.64326000e-02
-2.22092000 1.85229000e-02
-2.19092000 2.31151000e-02
-2.16092000 2.92812000e-02
-2.13092000 2.95082000e-02
-2.10092000 2.74705000e-02
-2.07092000 2.50145000e-02
-2.04092000 2.16378000e-02
-2.01092000 2.04123000e-02
-1.98092000 2.13113000e-02
-1.95092000 2.42749000e-02
-1.92092000 2.88493000e-02
-1.89092000 3.29877000e-02
-1.86092000 3.28901000e-02
-1.80628000 3.31991000e-02
-1.77628000 3.72922000e-02
-1.74628000 4.42279000e-02
-1.71628000 5.50940000e-02
-1.68628000 7.16208000e-02
-1.65628000 9.32711000e-02
-1.62628000 1.24901000e-01
-1.59628000 1.83551000e-01
-1.56628000 2.98753000e-01
-1.53628000 5.30087000e-01
-1.50628000 8.78835000e-01
-1.47628000 8.86411000e-01
-1.44628000 5.38013000e-01
-1.41628000 3.02161000e-01
-1.38628000 1.84025000e-01
-1.35628000 1.22644000e-01
-1.32628000 8.73665000e-02
-1.29628000 6.53350000e-02
-1.26628000 5.10199000e-02
-1.23628000 4.13088000e-02
-1.20628000 3.44758000e-02
-1.15164000 2.64646000e-02
-1.12164000 2.33644000e-02
-1.09164000 2.08886000e-02
-1.06164000 1.89804000e-02
-1.03164000 1.75041000e-02
-1.00164000 1.63644000e-02
-0.97164500 1.55076000e-02
-0.94164500 1.49166000e-02
-0.91164500 1.46223000e-02
-0.88164500 1.47468000e-02
-0.85164500 1.55896000e-02
-0.82164500 1.73685000e-02
-0.79164500 1.79503000e-02
-0.76164500 1.60159000e-02
-0.73164500 1.45751000e-02
-0.70164500 1.40492000e-02
-0.67164500 1.40926000e-02
-0.64164500 1.45576000e-02
-0.61164500 1.54504000e-02
-0.58164500 1.68941000e-02
-0.55164500 1.91609000e-02
-0.49700700 2.75529000e-02
-0.46700700 3.74476000e-02
-0.43700700 5.65542000e-02
-0.40700700 9.44149000e-02
-0.37700700 1.46397000e-01
-0.34700700 1.37788000e-01
-0.31700700 8.59904000e-02
-0.28700700 5.44556000e-02
-0.25700700 3.92119000e-02
-0.22700700 2.96884000e-02
-0.19700700 2.36037000e-02
-0.16700700 2.00639000e-02
-0.13700700 1.79709000e-02
-0.10700700 1.67135000e-02
-0.07700660 1.59817000e-02
-0.04700660 1.56122000e-02
-0.01700660 1.55170000e-02
0.01299340 1.56508000e-02
0.04299340 1.59969000e-02
0.07299340 1.65618000e-02
0.10299300 1.73767000e-02
0.15763200 1.96692000e-02
0.18763200 2.13944000e-02
0.21763200 2.36963000e-02
0.24763200 2.69179000e-02
0.27763200 3.15223000e-02
0.30763200 3.83513000e-02
0.33763200 4.90333000e-02
0.36763200 6.69403000e-02
0.39763200 9.95839000e-02
0.42763200 1.63875000e-01
0.45763200 2.83210000e-01
0.48763200 3.77048000e-01
0.51763200 2.79611000e-01
0.54763200 1.63945000e-01
0.57763200 1.03137000e-01
0.60763200 7.33771000e-02
0.63763200 5.83757000e-02
0.66763200 5.10953000e-02
0.69763200 4.86719000e-02
0.72763200 5.02626000e-02
0.75763200 5.64871000e-02
