# E(MeV)  S_NSDRNSDR(K=1) for Fe64_DDPCX
-6.56022000 -4.01835000e-03
-6.53022000 -3.93503000e-03
-6.50022000 -3.85230000e-03
-6.47022000 -3.77016000e-03
-6.44022000 -3.68861000e-03
-6.41022000 -3.60762000e-03
-6.38022000 -3.52720000e-03
-6.35022000 -3.44732000e-03
-6.32022000 -3.36799000e-03
-6.29022000 -3.28920000e-03
-6.26022000 -3.21093000e-03
-6.23022000 -3.13318000e-03
-6.20022000 -3.05594000e-03
-6.17022000 -2.97920000e-03
-6.14022000 -2.90296000e-03
-6.11022000 -2.82720000e-03
-6.08022000 -2.75191000e-03
-6.05022000 -2.67710000e-03
-6.02022000 -2.60275000e-03
-5.99022000 -2.52885000e-03
-5.96022000 -2.45540000e-03
-5.93022000 -2.38239000e-03
-5.90022000 -2.30982000e-03
-5.87022000 -2.23767000e-03
-5.82297000 -2.12488000e-03
-5.79297000 -2.05379000e-03
-5.76297000 -1.98311000e-03
-5.73297000 -1.91282000e-03
-5.70297000 -1.84292000e-03
-5.67297000 -1.77341000e-03
-5.64297000 -1.70427000e-03
-5.61297000 -1.63550000e-03
-5.58297000 -1.56709000e-03
-5.55297000 -1.49904000e-03
-5.52297000 -1.43135000e-03
-5.49297000 -1.36400000e-03
-5.46297000 -1.29699000e-03
-5.43297000 -1.23031000e-03
-5.40297000 -1.16396000e-03
-5.37297000 -1.09794000e-03
-5.34297000 -1.03224000e-03
-5.31297000 -9.66845000e-04
-5.28297000 -9.01760000e-04
-5.25297000 -8.36977000e-04
-5.22297000 -7.72491000e-04
-5.19297000 -7.08297000e-04
-5.16297000 -6.44389000e-04
-5.13297000 -5.80764000e-04
-5.08572000 -4.81114000e-04
-5.05572000 -4.18190000e-04
-5.02572000 -3.55531000e-04
-4.99572000 -2.93132000e-04
-4.96572000 -2.30987000e-04
-4.93572000 -1.69092000e-04
-4.90572000 -1.07443000e-04
-4.87572000 -4.60355000e-05
-4.84572000 1.51360000e-05
-4.81572000 7.60753000e-05
-4.78572000 1.36787000e-04
-4.75572000 1.97275000e-04
-4.72572000 2.57544000e-04
-4.69572000 3.17599000e-04
-4.66572000 3.77442000e-04
-4.63572000 4.37080000e-04
-4.60572000 4.96515000e-04
-4.57572000 5.55752000e-04
-4.54572000 6.14795000e-04
-4.51572000 6.73648000e-04
-4.48572000 7.32315000e-04
-4.45572000 7.90800000e-04
-4.42572000 8.49106000e-04
-4.39572000 9.07239000e-04
-4.34847000 9.98452000e-04
-4.31847000 1.05615000e-03
-4.28847000 1.11369000e-03
-4.25847000 1.17108000e-03
-4.22847000 1.22831000e-03
-4.19847000 1.28539000e-03
-4.16847000 1.34233000e-03
-4.13847000 1.39912000e-03
-4.10847000 1.45578000e-03
-4.07847000 1.51230000e-03
-4.04847000 1.56869000e-03
-4.01847000 1.62495000e-03
-3.98847000 1.68109000e-03
-3.95847000 1.73711000e-03
-3.92847000 1.79301000e-03
-3.89847000 1.84880000e-03
-3.86847000 1.90448000e-03
-3.83847000 1.96005000e-03
-3.80847000 2.01552000e-03
-3.77847000 2.07089000e-03
-3.74847000 2.12617000e-03
-3.71847000 2.18135000e-03
-3.68847000 2.23645000e-03
-3.65847000 2.29146000e-03
-3.61123000 2.37793000e-03
-3.58123000 2.43274000e-03
-3.55123000 2.48747000e-03
-3.52123000 2.54213000e-03
-3.49123000 2.59673000e-03
-3.46123000 2.65126000e-03
-3.43123000 2.70574000e-03
-3.40123000 2.76016000e-03
-3.37123000 2.81453000e-03
-3.34123000 2.86885000e-03
-3.31123000 2.92312000e-03
-3.28123000 2.97736000e-03
-3.25123000 3.03155000e-03
-3.22123000 3.08572000e-03
-3.19123000 3.13985000e-03
-3.16123000 3.19395000e-03
-3.13123000 3.24803000e-03
-3.10123000 3.30209000e-03
-3.07123000 3.35614000e-03
-3.04123000 3.41017000e-03
-3.01123000 3.46419000e-03
-2.98123000 3.51821000e-03
-2.95123000 3.57223000e-03
-2.92123000 3.62625000e-03
-2.87398000 3.71135000e-03
-2.84398000 3.76540000e-03
-2.81398000 3.81946000e-03
-2.78398000 3.87355000e-03
-2.75398000 3.92766000e-03
-2.72398000 3.98180000e-03
-2.69398000 4.03597000e-03
-2.66398000 4.09018000e-03
-2.63398000 4.14443000e-03
-2.60398000 4.19874000e-03
-2.57398000 4.25309000e-03
-2.54398000 4.30750000e-03
-2.51398000 4.36197000e-03
-2.48398000 4.41650000e-03
-2.45398000 4.47111000e-03
-2.42398000 4.52579000e-03
-2.39398000 4.58056000e-03
-2.36398000 4.63541000e-03
-2.33398000 4.69035000e-03
-2.30398000 4.74539000e-03
-2.27398000 4.80053000e-03
-2.24398000 4.85578000e-03
-2.21398000 4.91115000e-03
-2.18398000 4.96663000e-03
-2.13673000 5.05428000e-03
-2.10673000 5.11011000e-03
-2.07673000 5.16608000e-03
-2.04673000 5.22221000e-03
-2.01673000 5.27849000e-03
-1.98673000 5.33494000e-03
-1.95673000 5.39157000e-03
-1.92673000 5.44837000e-03
-1.89673000 5.50537000e-03
-1.86673000 5.56257000e-03
-1.83673000 5.61997000e-03
-1.80673000 5.67760000e-03
-1.77673000 5.73545000e-03
-1.74673000 5.79354000e-03
-1.71673000 5.85187000e-03
-1.68673000 5.91047000e-03
-1.65673000 5.96934000e-03
-1.62673000 6.02849000e-03
-1.59673000 6.08794000e-03
-1.56673000 6.14769000e-03
-1.53673000 6.20777000e-03
-1.50673000 6.26819000e-03
-1.47673000 6.32896000e-03
-1.44673000 6.39010000e-03
-1.39948000 6.48718000e-03
-1.36948000 6.54934000e-03
-1.33948000 6.61194000e-03
-1.30948000 6.67499000e-03
-1.27948000 6.73852000e-03
-1.24948000 6.80254000e-03
-1.21948000 6.86708000e-03
-1.18948000 6.93218000e-03
-1.15948000 6.99784000e-03
-1.12948000 7.06411000e-03
-1.09948000 7.13101000e-03
-1.06948000 7.19857000e-03
-1.03948000 7.26683000e-03
-1.00948000 7.33583000e-03
-0.97947800 7.40561000e-03
-0.94947800 7.47620000e-03
-0.91947800 7.54766000e-03
-0.88947800 7.62003000e-03
-0.85947800 7.69336000e-03
-0.82947800 7.76771000e-03
-0.79947800 7.84314000e-03
-0.76947800 7.91971000e-03
-0.73947800 7.99749000e-03
-0.70947800 8.07657000e-03
-0.66222900 8.20392000e-03
-0.63222900 8.28670000e-03
-0.60222900 8.37110000e-03
-0.57222900 8.45722000e-03
-0.54222900 8.54518000e-03
-0.51222900 8.63512000e-03
-0.48222900 8.72717000e-03
-0.45222900 8.82149000e-03
-0.42222900 8.91825000e-03
-0.39222900 9.01765000e-03
-0.36222900 9.11989000e-03
-0.33222900 9.22520000e-03
-0.30222900 9.33384000e-03
-0.27222900 9.44608000e-03
-0.24222900 9.56225000e-03
-0.21222900 9.68268000e-03
-0.18222900 9.80778000e-03
-0.15222900 9.93799000e-03
-0.12222900 1.00738000e-02
-0.09222850 1.02157000e-02
-0.06222850 1.03645000e-02
-0.03222850 1.05207000e-02
-0.00222851 1.06853000e-02
0.02777150 1.08592000e-02
0.07502070 1.11541000e-02
0.10502100 1.13569000e-02
0.13502100 1.15737000e-02
0.16502100 1.18058000e-02
0.19502100 1.20554000e-02
0.22502100 1.23251000e-02
0.25502100 1.26179000e-02
0.28502100 1.29373000e-02
0.31502100 1.32871000e-02
0.34502100 1.36725000e-02
0.37502100 1.40992000e-02
0.40502100 1.45747000e-02
0.43502100 1.51079000e-02
0.46502100 1.57098000e-02
0.49502100 1.63946000e-02
0.52502100 1.71799000e-02
0.55502100 1.80884000e-02
0.58502100 1.91496000e-02
0.61502100 2.04024000e-02
0.64502100 2.18989000e-02
0.67502100 2.37101000e-02
0.70502100 2.59345000e-02
0.73502100 2.87127000e-02
0.76502100 3.22496000e-02
