# E(MeV)  S_GAMTGAMT(K=0) for Fe64_DDPCX
-6.56022000 4.45851000e-02
-6.53022000 5.00620000e-02
-6.50022000 5.62141000e-02
-6.47022000 6.32074000e-02
-6.44022000 7.12498000e-02
-6.41022000 8.06069000e-02
-6.38022000 9.16245000e-02
-6.35022000 1.04761000e-01
-6.32022000 1.20635000e-01
-6.29022000 1.40102000e-01
-6.26022000 1.64368000e-01
-6.23022000 1.95179000e-01
-6.20022000 2.35139000e-01
-6.17022000 2.88265000e-01
-6.14022000 3.60998000e-01
-6.11022000 4.64156000e-01
-6.08022000 6.16933000e-01
-6.05022000 8.55668000e-01
-6.02022000 1.25451000e+00
-5.99022000 1.97687000e+00
-5.96022000 3.39443000e+00
-5.93022000 6.12678000e+00
-5.90022000 8.95867000e+00
-5.87022000 7.15364000e+00
-5.82297000 2.89111000e+00
-5.79297000 1.72575000e+00
-5.76297000 1.12006000e+00
-5.73297000 7.77647000e-01
-5.70297000 5.68583000e-01
-5.67297000 4.32674000e-01
-5.64297000 3.39773000e-01
-5.61297000 2.73645000e-01
-5.58297000 2.24991000e-01
-5.55297000 1.88197000e-01
-5.52297000 1.59722000e-01
-5.49297000 1.37248000e-01
-5.46297000 1.19210000e-01
-5.43297000 1.04517000e-01
-5.40297000 9.23958000e-02
-5.37297000 8.22811000e-02
-5.34297000 7.37556000e-02
-5.31297000 6.65048000e-02
-5.28297000 6.02878000e-02
-5.25297000 5.49182000e-02
-5.22297000 5.02495000e-02
-5.19297000 4.61655000e-02
-5.16297000 4.25732000e-02
-5.13297000 3.93973000e-02
-5.08572000 3.50948000e-02
-5.05572000 3.27337000e-02
-5.02572000 3.06141000e-02
-4.99572000 2.87047000e-02
-4.96572000 2.69788000e-02
-4.93572000 2.54139000e-02
-4.90572000 2.39909000e-02
-4.87572000 2.26933000e-02
-4.84572000 2.15071000e-02
-4.81572000 2.04200000e-02
-4.78572000 1.94217000e-02
-4.75572000 1.85027000e-02
-4.72572000 1.76552000e-02
-4.69572000 1.68721000e-02
-4.66572000 1.61472000e-02
-4.63572000 1.54750000e-02
-4.60572000 1.48507000e-02
-4.57572000 1.42700000e-02
-4.54572000 1.37291000e-02
-4.51572000 1.32245000e-02
-4.48572000 1.27533000e-02
-4.45572000 1.23127000e-02
-4.42572000 1.19002000e-02
-4.39572000 1.15136000e-02
-4.34847000 1.09525000e-02
-4.31847000 1.06239000e-02
-4.28847000 1.03148000e-02
-4.25847000 1.00240000e-02
-4.22847000 9.75006000e-03
-4.19847000 9.49186000e-03
-4.16847000 9.24832000e-03
-4.13847000 9.01848000e-03
-4.10847000 8.80143000e-03
-4.07847000 8.59636000e-03
-4.04847000 8.40251000e-03
-4.01847000 8.21919000e-03
-3.98847000 8.04575000e-03
-3.95847000 7.88163000e-03
-3.92847000 7.72626000e-03
-3.89847000 7.57914000e-03
-3.86847000 7.43983000e-03
-3.83847000 7.30789000e-03
-3.80847000 7.18295000e-03
-3.77847000 7.06465000e-03
-3.74847000 6.95257000e-03
-3.71847000 6.84625000e-03
-3.68847000 6.74555000e-03
-3.65847000 6.65025000e-03
-3.61123000 6.51047000e-03
-3.58123000 6.42788000e-03
-3.55123000 6.34981000e-03
-3.52123000 6.27606000e-03
-3.49123000 6.20644000e-03
-3.46123000 6.14078000e-03
-3.43123000 6.07892000e-03
-3.40123000 6.02069000e-03
-3.37123000 5.96596000e-03
-3.34123000 5.91460000e-03
-3.31123000 5.86649000e-03
-3.28123000 5.82149000e-03
-3.25123000 5.77952000e-03
-3.22123000 5.74046000e-03
-3.19123000 5.70423000e-03
-3.16123000 5.67072000e-03
-3.13123000 5.63987000e-03
-3.10123000 5.61160000e-03
-3.07123000 5.58583000e-03
-3.04123000 5.56249000e-03
-3.01123000 5.54154000e-03
-2.98123000 5.52290000e-03
-2.95123000 5.50654000e-03
-2.92123000 5.49240000e-03
-2.87398000 5.47452000e-03
-2.84398000 5.46588000e-03
-2.81398000 5.45931000e-03
-2.78398000 5.45480000e-03
-2.75398000 5.45231000e-03
-2.72398000 5.45182000e-03
-2.69398000 5.45329000e-03
-2.66398000 5.45673000e-03
-2.63398000 5.46210000e-03
-2.60398000 5.46939000e-03
-2.57398000 5.47860000e-03
-2.54398000 5.48972000e-03
-2.51398000 5.50275000e-03
-2.48398000 5.51767000e-03
-2.45398000 5.53450000e-03
-2.42398000 5.55324000e-03
-2.39398000 5.57389000e-03
-2.36398000 5.59647000e-03
-2.33398000 5.62099000e-03
-2.30398000 5.64746000e-03
-2.27398000 5.67590000e-03
-2.24398000 5.70632000e-03
-2.21398000 5.73876000e-03
-2.18398000 5.77325000e-03
-2.13673000 5.83178000e-03
-2.10673000 5.87168000e-03
-2.07673000 5.91374000e-03
-2.04673000 5.95802000e-03
-2.01673000 6.00455000e-03
-1.98673000 6.05339000e-03
-1.95673000 6.10459000e-03
-1.92673000 6.15822000e-03
-1.89673000 6.21433000e-03
-1.86673000 6.27300000e-03
-1.83673000 6.33427000e-03
-1.80673000 6.39823000e-03
-1.77673000 6.46499000e-03
-1.74673000 6.53463000e-03
-1.71673000 6.60724000e-03
-1.68673000 6.68293000e-03
-1.65673000 6.76180000e-03
-1.62673000 6.84398000e-03
-1.59673000 6.92958000e-03
-1.56673000 7.01875000e-03
-1.53673000 7.11162000e-03
-1.50673000 7.20835000e-03
-1.47673000 7.30911000e-03
-1.44673000 7.41407000e-03
-1.39948000 7.58835000e-03
-1.36948000 7.70503000e-03
-1.33948000 7.82666000e-03
-1.30948000 7.95347000e-03
-1.27948000 8.08572000e-03
-1.24948000 8.22371000e-03
-1.21948000 8.36773000e-03
-1.18948000 8.51811000e-03
-1.15948000 8.67520000e-03
-1.12948000 8.83939000e-03
-1.09948000 9.01108000e-03
-1.06948000 9.19073000e-03
-1.03948000 9.37881000e-03
-1.00948000 9.57585000e-03
-0.97947800 9.78243000e-03
-0.94947800 9.99917000e-03
-0.91947800 1.02267000e-02
-0.88947800 1.04659000e-02
-0.85947800 1.07174000e-02
-0.82947800 1.09823000e-02
-0.79947800 1.12613000e-02
-0.76947800 1.15558000e-02
-0.73947800 1.18667000e-02
-0.70947800 1.21954000e-02
-0.66222900 1.27529000e-02
-0.63222900 1.31346000e-02
-0.60222900 1.35401000e-02
-0.57222900 1.39716000e-02
-0.54222900 1.44313000e-02
-0.51222900 1.49219000e-02
-0.48222900 1.54466000e-02
-0.45222900 1.60086000e-02
-0.42222900 1.66118000e-02
-0.39222900 1.72606000e-02
-0.36222900 1.79599000e-02
-0.33222900 1.87155000e-02
-0.30222900 1.95340000e-02
-0.27222900 2.04228000e-02
-0.24222900 2.13908000e-02
-0.21222900 2.24482000e-02
-0.18222900 2.36070000e-02
-0.15222900 2.48811000e-02
-0.12222900 2.62874000e-02
-0.09222850 2.78455000e-02
-0.06222850 2.95793000e-02
-0.03222850 3.15174000e-02
-0.00222851 3.36945000e-02
0.02777150 3.61533000e-02
0.07502070 4.07287000e-02
0.10502100 4.41879000e-02
0.13502100 4.81874000e-02
0.16502100 5.28488000e-02
0.19502100 5.83306000e-02
0.22502100 6.48417000e-02
0.25502100 7.26618000e-02
0.28502100 8.21730000e-02
0.31502100 9.39066000e-02
0.34502100 1.08620000e-01
0.37502100 1.27421000e-01
0.40502100 1.51977000e-01
0.43502100 1.84896000e-01
0.46502100 2.30416000e-01
0.49502100 2.95778000e-01
0.52502100 3.94092000e-01
0.55502100 5.50760000e-01
0.58502100 8.18977000e-01
0.61502100 1.31835000e+00
0.64502100 2.31333000e+00
0.67502100 4.07440000e+00
0.70502100 5.00278000e+00
0.73502100 3.37759000e+00
0.76502100 1.87715000e+00
