# E(MeV)  S_GAMTGAMT(Total=K0+2*K1) for Fe64_DDPCX
-6.56022000 1.32955500e-01
-6.53022000 1.49216800e-01
-6.50022000 1.67478500e-01
-6.47022000 1.88230200e-01
-6.44022000 2.12085400e-01
-6.41022000 2.39827100e-01
-6.38022000 2.72473300e-01
-6.35022000 3.11373000e-01
-6.32022000 3.58345000e-01
-6.29022000 4.15898000e-01
-6.26022000 4.87566000e-01
-6.23022000 5.78463000e-01
-6.20022000 6.96193000e-01
-6.17022000 8.52463000e-01
-6.14022000 1.06599800e+00
-6.11022000 1.36815200e+00
-6.08022000 1.81436300e+00
-6.05022000 2.50914200e+00
-6.02022000 3.66475000e+00
-5.99022000 5.74699000e+00
-5.96022000 9.81715000e+00
-5.93022000 1.77305000e+01
-5.90022000 2.66115700e+01
-5.87022000 2.20595400e+01
-5.82297000 8.96711000e+00
-5.79297000 5.32345000e+00
-5.76297000 3.43860000e+00
-5.73297000 2.37859500e+00
-5.70297000 1.73422700e+00
-5.67297000 1.31680200e+00
-5.64297000 1.03227100e+00
-5.61297000 8.30199000e-01
-5.58297000 6.81801000e-01
-5.55297000 5.69751000e-01
-5.52297000 4.83150000e-01
-5.49297000 4.14878000e-01
-5.46297000 3.60132000e-01
-5.43297000 3.15579000e-01
-5.40297000 2.78848600e-01
-5.37297000 2.48219700e-01
-5.34297000 2.22418600e-01
-5.31297000 2.00486200e-01
-5.28297000 1.81690200e-01
-5.25297000 1.65462600e-01
-5.22297000 1.51358900e-01
-5.19297000 1.39025900e-01
-5.16297000 1.28181400e-01
-5.13297000 1.18596500e-01
-5.08572000 1.05616200e-01
-5.05572000 9.84951000e-02
-5.02572000 9.21039000e-02
-4.99572000 8.63477000e-02
-4.96572000 8.11456000e-02
-4.93572000 7.64297000e-02
-4.90572000 7.21421000e-02
-4.87572000 6.82331000e-02
-4.84572000 6.46601000e-02
-4.81572000 6.13864000e-02
-4.78572000 5.83801000e-02
-4.75572000 5.56131000e-02
-4.72572000 5.30618000e-02
-4.69572000 5.07043000e-02
-4.66572000 4.85224000e-02
-4.63572000 4.64994000e-02
-4.60572000 4.46207000e-02
-4.57572000 4.28734000e-02
-4.54572000 4.12459000e-02
-4.51572000 3.97279000e-02
-4.48572000 3.83105000e-02
-4.45572000 3.69849000e-02
-4.42572000 3.57442000e-02
-4.39572000 3.45814000e-02
-4.34847000 3.28941000e-02
-4.31847000 3.19059000e-02
-4.28847000 3.09766000e-02
-4.25847000 3.01020000e-02
-4.22847000 2.92784200e-02
-4.19847000 2.85021200e-02
-4.16847000 2.77699400e-02
-4.13847000 2.70789800e-02
-4.10847000 2.64264900e-02
-4.07847000 2.58100400e-02
-4.04847000 2.52273500e-02
-4.01847000 2.46763300e-02
-3.98847000 2.41550300e-02
-3.95847000 2.36617300e-02
-3.92847000 2.31947600e-02
-3.89847000 2.27526200e-02
-3.86847000 2.23339300e-02
-3.83847000 2.19374100e-02
-3.80847000 2.15618900e-02
-3.77847000 2.12062900e-02
-3.74847000 2.08694300e-02
-3.71847000 2.05500300e-02
-3.68847000 2.02475100e-02
-3.65847000 1.99612300e-02
-3.61123000 1.95412500e-02
-3.58123000 1.92931000e-02
-3.55123000 1.90585300e-02
-3.52123000 1.88369600e-02
-3.49123000 1.86277800e-02
-3.46123000 1.84305200e-02
-3.43123000 1.82446400e-02
-3.40123000 1.80697100e-02
-3.37123000 1.79052800e-02
-3.34123000 1.77509800e-02
-3.31123000 1.76064100e-02
-3.28123000 1.74712300e-02
-3.25123000 1.73451400e-02
-3.22123000 1.72277800e-02
-3.19123000 1.71189300e-02
-3.16123000 1.70182600e-02
-3.13123000 1.69255700e-02
-3.10123000 1.68406000e-02
-3.07123000 1.67631700e-02
-3.04123000 1.66930500e-02
-3.01123000 1.66300800e-02
-2.98123000 1.65740800e-02
-2.95123000 1.65249000e-02
-2.92123000 1.64823800e-02
-2.87398000 1.64286200e-02
-2.84398000 1.64026400e-02
-2.81398000 1.63829100e-02
-2.78398000 1.63693200e-02
-2.75398000 1.63618100e-02
-2.72398000 1.63603000e-02
-2.69398000 1.63646900e-02
-2.66398000 1.63749700e-02
-2.63398000 1.63910400e-02
-2.60398000 1.64129100e-02
-2.57398000 1.64405200e-02
-2.54398000 1.64738800e-02
-2.51398000 1.65129500e-02
-2.48398000 1.65577300e-02
-2.45398000 1.66082200e-02
-2.42398000 1.66644400e-02
-2.39398000 1.67264100e-02
-2.36398000 1.67941700e-02
-2.33398000 1.68677500e-02
-2.30398000 1.69472000e-02
-2.27398000 1.70325400e-02
-2.24398000 1.71238600e-02
-2.21398000 1.72212200e-02
-2.18398000 1.73247300e-02
-2.13673000 1.75004000e-02
-2.10673000 1.76201600e-02
-2.07673000 1.77464200e-02
-2.04673000 1.78793200e-02
-2.01673000 1.80189900e-02
-1.98673000 1.81655900e-02
-1.95673000 1.83192700e-02
-1.92673000 1.84802400e-02
-1.89673000 1.86486900e-02
-1.86673000 1.88247800e-02
-1.83673000 1.90087100e-02
-1.80673000 1.92007300e-02
-1.77673000 1.94011300e-02
-1.74673000 1.96101900e-02
-1.71673000 1.98281600e-02
-1.68673000 2.00553700e-02
-1.65673000 2.02921600e-02
-1.62673000 2.05388400e-02
-1.59673000 2.07958400e-02
-1.56673000 2.10635300e-02
-1.53673000 2.13423400e-02
-1.50673000 2.16327300e-02
-1.47673000 2.19352300e-02
-1.44673000 2.22503500e-02
-1.39948000 2.27735900e-02
-1.36948000 2.31239100e-02
-1.33948000 2.34890800e-02
-1.30948000 2.38698100e-02
-1.27948000 2.42669000e-02
-1.24948000 2.46812100e-02
-1.21948000 2.51136300e-02
-1.18948000 2.55651700e-02
-1.15948000 2.60368600e-02
-1.12948000 2.65298700e-02
-1.09948000 2.70454200e-02
-1.06948000 2.75848700e-02
-1.03948000 2.81496700e-02
-1.00948000 2.87413900e-02
-0.97947800 2.93617500e-02
-0.94947800 3.00125700e-02
-0.91947800 3.06961000e-02
-0.88947800 3.14143000e-02
-0.85947800 3.21698000e-02
-0.82947800 3.29653000e-02
-0.79947800 3.38033000e-02
-0.76947800 3.46878000e-02
-0.73947800 3.56217000e-02
-0.70947800 3.66092000e-02
-0.66222900 3.82839000e-02
-0.63222900 3.94306000e-02
-0.60222900 4.06489000e-02
-0.57222900 4.19452000e-02
-0.54222900 4.33263000e-02
-0.51222900 4.48007000e-02
-0.48222900 4.63772000e-02
-0.45222900 4.80662000e-02
-0.42222900 4.98790000e-02
-0.39222900 5.18290000e-02
-0.36222900 5.39309000e-02
-0.33222900 5.62023000e-02
-0.30222900 5.86626000e-02
-0.27222900 6.13350000e-02
-0.24222900 6.42454000e-02
-0.21222900 6.74250000e-02
-0.18222900 7.09100000e-02
-0.15222900 7.47421000e-02
-0.12222900 7.89724000e-02
-0.09222850 8.36599000e-02
-0.06222850 8.88767000e-02
-0.03222850 9.47090000e-02
-0.00222851 1.01261900e-01
0.02777150 1.08663700e-01
0.07502070 1.22441100e-01
0.10502100 1.32860700e-01
0.13502100 1.44910400e-01
0.16502100 1.58958200e-01
0.19502100 1.75483800e-01
0.22502100 1.95118700e-01
0.25502100 2.18710600e-01
0.28502100 2.47416600e-01
0.31502100 2.82848000e-01
0.34502100 3.27304000e-01
0.37502100 3.84145000e-01
0.40502100 4.58449000e-01
0.43502100 5.58148000e-01
0.46502100 6.96168000e-01
0.49502100 8.94624000e-01
0.52502100 1.19364200e+00
0.55502100 1.67116400e+00
0.58502100 2.49083300e+00
0.61502100 4.02125000e+00
0.64502100 7.07299000e+00
0.67502100 1.24040400e+01
0.70502100 1.49281400e+01
0.73502100 9.94047000e+00
0.76502100 5.52357000e+00
