# E(MeV)  S_GAMTGAMT(K=1) for Fe64_DDPCX
-6.56022000 4.41852000e-02
-6.53022000 4.95774000e-02
-6.50022000 5.56322000e-02
-6.47022000 6.25114000e-02
-6.44022000 7.04178000e-02
-6.41022000 7.96101000e-02
-6.38022000 9.04244000e-02
-6.35022000 1.03306000e-01
-6.32022000 1.18855000e-01
-6.29022000 1.37898000e-01
-6.26022000 1.61599000e-01
-6.23022000 1.91642000e-01
-6.20022000 2.30527000e-01
-6.17022000 2.82099000e-01
-6.14022000 3.52500000e-01
-6.11022000 4.51998000e-01
-6.08022000 5.98715000e-01
-6.05022000 8.26737000e-01
-6.02022000 1.20512000e+00
-5.99022000 1.88506000e+00
-5.96022000 3.21136000e+00
-5.93022000 5.80186000e+00
-5.90022000 8.82645000e+00
-5.87022000 7.45295000e+00
-5.82297000 3.03800000e+00
-5.79297000 1.79885000e+00
-5.76297000 1.15927000e+00
-5.73297000 8.00474000e-01
-5.70297000 5.82822000e-01
-5.67297000 4.42064000e-01
-5.64297000 3.46249000e-01
-5.61297000 2.78277000e-01
-5.58297000 2.28405000e-01
-5.55297000 1.90777000e-01
-5.52297000 1.61714000e-01
-5.49297000 1.38815000e-01
-5.46297000 1.20461000e-01
-5.43297000 1.05531000e-01
-5.40297000 9.32264000e-02
-5.37297000 8.29693000e-02
-5.34297000 7.43315000e-02
-5.31297000 6.69907000e-02
-5.28297000 6.07012000e-02
-5.25297000 5.52722000e-02
-5.22297000 5.05547000e-02
-5.19297000 4.64302000e-02
-5.16297000 4.28041000e-02
-5.13297000 3.95996000e-02
-5.08572000 3.52607000e-02
-5.05572000 3.28807000e-02
-5.02572000 3.07449000e-02
-4.99572000 2.88215000e-02
-4.96572000 2.70834000e-02
-4.93572000 2.55079000e-02
-4.90572000 2.40756000e-02
-4.87572000 2.27699000e-02
-4.84572000 2.15765000e-02
-4.81572000 2.04832000e-02
-4.78572000 1.94792000e-02
-4.75572000 1.85552000e-02
-4.72572000 1.77033000e-02
-4.69572000 1.69161000e-02
-4.66572000 1.61876000e-02
-4.63572000 1.55122000e-02
-4.60572000 1.48850000e-02
-4.57572000 1.43017000e-02
-4.54572000 1.37584000e-02
-4.51572000 1.32517000e-02
-4.48572000 1.27786000e-02
-4.45572000 1.23361000e-02
-4.42572000 1.19220000e-02
-4.39572000 1.15339000e-02
-4.34847000 1.09708000e-02
-4.31847000 1.06410000e-02
-4.28847000 1.03309000e-02
-4.25847000 1.00390000e-02
-4.22847000 9.76418000e-03
-4.19847000 9.50513000e-03
-4.16847000 9.26081000e-03
-4.13847000 9.03025000e-03
-4.10847000 8.81253000e-03
-4.07847000 8.60684000e-03
-4.04847000 8.41242000e-03
-4.01847000 8.22857000e-03
-3.98847000 8.05464000e-03
-3.95847000 7.89005000e-03
-3.92847000 7.73425000e-03
-3.89847000 7.58674000e-03
-3.86847000 7.44705000e-03
-3.83847000 7.31476000e-03
-3.80847000 7.18947000e-03
-3.77847000 7.07082000e-03
-3.74847000 6.95843000e-03
-3.71847000 6.85189000e-03
-3.68847000 6.75098000e-03
-3.65847000 6.65549000e-03
-3.61123000 6.51539000e-03
-3.58123000 6.43261000e-03
-3.55123000 6.35436000e-03
-3.52123000 6.28045000e-03
-3.49123000 6.21067000e-03
-3.46123000 6.14487000e-03
-3.43123000 6.08286000e-03
-3.40123000 6.02451000e-03
-3.37123000 5.96966000e-03
-3.34123000 5.91819000e-03
-3.31123000 5.86996000e-03
-3.28123000 5.82487000e-03
-3.25123000 5.78281000e-03
-3.22123000 5.74366000e-03
-3.19123000 5.70735000e-03
-3.16123000 5.67377000e-03
-3.13123000 5.64285000e-03
-3.10123000 5.61450000e-03
-3.07123000 5.58867000e-03
-3.04123000 5.56528000e-03
-3.01123000 5.54427000e-03
-2.98123000 5.52559000e-03
-2.95123000 5.50918000e-03
-2.92123000 5.49499000e-03
-2.87398000 5.47705000e-03
-2.84398000 5.46838000e-03
-2.81398000 5.46180000e-03
-2.78398000 5.45726000e-03
-2.75398000 5.45475000e-03
-2.72398000 5.45424000e-03
-2.69398000 5.45570000e-03
-2.66398000 5.45912000e-03
-2.63398000 5.46447000e-03
-2.60398000 5.47176000e-03
-2.57398000 5.48096000e-03
-2.54398000 5.49208000e-03
-2.51398000 5.50510000e-03
-2.48398000 5.52003000e-03
-2.45398000 5.53686000e-03
-2.42398000 5.55560000e-03
-2.39398000 5.57626000e-03
-2.36398000 5.59885000e-03
-2.33398000 5.62338000e-03
-2.30398000 5.64987000e-03
-2.27398000 5.67832000e-03
-2.24398000 5.70877000e-03
-2.21398000 5.74123000e-03
-2.18398000 5.77574000e-03
-2.13673000 5.83431000e-03
-2.10673000 5.87424000e-03
-2.07673000 5.91634000e-03
-2.04673000 5.96065000e-03
-2.01673000 6.00722000e-03
-1.98673000 6.05610000e-03
-1.95673000 6.10734000e-03
-1.92673000 6.16101000e-03
-1.89673000 6.21718000e-03
-1.86673000 6.27589000e-03
-1.83673000 6.33722000e-03
-1.80673000 6.40125000e-03
-1.77673000 6.46807000e-03
-1.74673000 6.53778000e-03
-1.71673000 6.61046000e-03
-1.68673000 6.68622000e-03
-1.65673000 6.76518000e-03
-1.62673000 6.84743000e-03
-1.59673000 6.93313000e-03
-1.56673000 7.02239000e-03
-1.53673000 7.11536000e-03
-1.50673000 7.21219000e-03
-1.47673000 7.31306000e-03
-1.44673000 7.41814000e-03
-1.39948000 7.59262000e-03
-1.36948000 7.70944000e-03
-1.33948000 7.83121000e-03
-1.30948000 7.95817000e-03
-1.27948000 8.09059000e-03
-1.24948000 8.22875000e-03
-1.21948000 8.37295000e-03
-1.18948000 8.52353000e-03
-1.15948000 8.68083000e-03
-1.12948000 8.84524000e-03
-1.09948000 9.01717000e-03
-1.06948000 9.19707000e-03
-1.03948000 9.38543000e-03
-1.00948000 9.58277000e-03
-0.97947800 9.78966000e-03
-0.94947800 1.00067000e-02
-0.91947800 1.02347000e-02
-0.88947800 1.04742000e-02
-0.85947800 1.07262000e-02
-0.82947800 1.09915000e-02
-0.79947800 1.12710000e-02
-0.76947800 1.15660000e-02
-0.73947800 1.18775000e-02
-0.70947800 1.22069000e-02
-0.66222900 1.27655000e-02
-0.63222900 1.31480000e-02
-0.60222900 1.35544000e-02
-0.57222900 1.39868000e-02
-0.54222900 1.44475000e-02
-0.51222900 1.49394000e-02
-0.48222900 1.54653000e-02
-0.45222900 1.60288000e-02
-0.42222900 1.66336000e-02
-0.39222900 1.72842000e-02
-0.36222900 1.79855000e-02
-0.33222900 1.87434000e-02
-0.30222900 1.95643000e-02
-0.27222900 2.04561000e-02
-0.24222900 2.14273000e-02
-0.21222900 2.24884000e-02
-0.18222900 2.36515000e-02
-0.15222900 2.49305000e-02
-0.12222900 2.63425000e-02
-0.09222850 2.79072000e-02
-0.06222850 2.96487000e-02
-0.03222850 3.15958000e-02
-0.00222851 3.37837000e-02
0.02777150 3.62552000e-02
0.07502070 4.08562000e-02
0.10502100 4.43364000e-02
0.13502100 4.83615000e-02
0.16502100 5.30547000e-02
0.19502100 5.85766000e-02
0.22502100 6.51385000e-02
0.25502100 7.30244000e-02
0.28502100 8.26218000e-02
0.31502100 9.44707000e-02
0.34502100 1.09342000e-01
0.37502100 1.28362000e-01
0.40502100 1.53236000e-01
0.43502100 1.86626000e-01
0.46502100 2.32876000e-01
0.49502100 2.99423000e-01
0.52502100 3.99775000e-01
0.55502100 5.60202000e-01
0.58502100 8.35928000e-01
0.61502100 1.35145000e+00
0.64502100 2.37983000e+00
0.67502100 4.16482000e+00
0.70502100 4.96268000e+00
0.73502100 3.28144000e+00
0.76502100 1.82321000e+00
