# E(MeV)  S_NSDRNSDR(Total=K0+2*K1) for Fe64_DDPCX
-6.56022000 -1.20570600e-02
-6.53022000 -1.18070600e-02
-6.50022000 -1.15588500e-02
-6.47022000 -1.13124000e-02
-6.44022000 -1.10677200e-02
-6.41022000 -1.08247200e-02
-6.38022000 -1.05834300e-02
-6.35022000 -1.03437700e-02
-6.32022000 -1.01057500e-02
-6.29022000 -9.86935000e-03
-6.26022000 -9.63452000e-03
-6.23022000 -9.40124000e-03
-6.20022000 -9.16950000e-03
-6.17022000 -8.93925000e-03
-6.14022000 -8.71050000e-03
-6.11022000 -8.48319000e-03
-6.08022000 -8.25731000e-03
-6.05022000 -8.03285000e-03
-6.02022000 -7.80977000e-03
-5.99022000 -7.58805000e-03
-5.96022000 -7.36768000e-03
-5.93022000 -7.14862000e-03
-5.90022000 -6.93088000e-03
-5.87022000 -6.71441000e-03
-5.82297000 -6.37600000e-03
-5.79297000 -6.16272000e-03
-5.76297000 -5.95065000e-03
-5.73297000 -5.73976000e-03
-5.70297000 -5.53004000e-03
-5.67297000 -5.32148000e-03
-5.64297000 -5.11404000e-03
-5.61297000 -4.90771000e-03
-5.58297000 -4.70246000e-03
-5.55297000 -4.49829000e-03
-5.52297000 -4.29519000e-03
-5.49297000 -4.09312000e-03
-5.46297000 -3.89207000e-03
-5.43297000 -3.69201000e-03
-5.40297000 -3.49294000e-03
-5.37297000 -3.29486000e-03
-5.34297000 -3.09773000e-03
-5.31297000 -2.90153000e-03
-5.28297000 -2.70625500e-03
-5.25297000 -2.51188600e-03
-5.22297000 -2.31840800e-03
-5.19297000 -2.12580600e-03
-5.16297000 -1.93406300e-03
-5.13297000 -1.74316800e-03
-5.08572000 -1.44418700e-03
-5.05572000 -1.25539600e-03
-5.02572000 -1.06740000e-03
-4.99572000 -8.80183000e-04
-4.96572000 -6.93730000e-04
-4.93572000 -5.08026000e-04
-4.90572000 -3.23061000e-04
-4.87572000 -1.38819000e-04
-4.84572000 4.47140000e-05
-4.81572000 2.27550300e-04
-4.78572000 4.09704000e-04
-4.75572000 5.91186000e-04
-4.72572000 7.72011000e-04
-4.69572000 9.52194000e-04
-4.66572000 1.13174100e-03
-4.63572000 1.31067300e-03
-4.60572000 1.48899600e-03
-4.57572000 1.66672400e-03
-4.54572000 1.84387100e-03
-4.51572000 2.02044700e-03
-4.48572000 2.19646600e-03
-4.45572000 2.37193800e-03
-4.42572000 2.54687300e-03
-4.39572000 2.72128900e-03
-4.34847000 2.99495500e-03
-4.31847000 3.16807000e-03
-4.28847000 3.34071000e-03
-4.25847000 3.51289000e-03
-4.22847000 3.68460000e-03
-4.19847000 3.85585000e-03
-4.16847000 4.02669000e-03
-4.13847000 4.19708000e-03
-4.10847000 4.36707000e-03
-4.07847000 4.53665000e-03
-4.04847000 4.70584000e-03
-4.01847000 4.87463000e-03
-3.98847000 5.04307000e-03
-3.95847000 5.21114000e-03
-3.92847000 5.37886000e-03
-3.89847000 5.54625000e-03
-3.86847000 5.71330000e-03
-3.83847000 5.88003000e-03
-3.80847000 6.04646000e-03
-3.77847000 6.21259000e-03
-3.74847000 6.37844000e-03
-3.71847000 6.54400000e-03
-3.68847000 6.70931000e-03
-3.65847000 6.87435000e-03
-3.61123000 7.13379000e-03
-3.58123000 7.29823000e-03
-3.55123000 7.46244000e-03
-3.52123000 7.62644000e-03
-3.49123000 7.79025000e-03
-3.46123000 7.95387000e-03
-3.43123000 8.11732000e-03
-3.40123000 8.28059000e-03
-3.37123000 8.44372000e-03
-3.34123000 8.60669000e-03
-3.31123000 8.76953000e-03
-3.28123000 8.93226000e-03
-3.25123000 9.09485000e-03
-3.22123000 9.25736000e-03
-3.19123000 9.41977000e-03
-3.16123000 9.58209000e-03
-3.13123000 9.74435000e-03
-3.10123000 9.90655000e-03
-3.07123000 1.00687100e-02
-3.04123000 1.02308100e-02
-3.01123000 1.03928900e-02
-2.98123000 1.05549700e-02
-2.95123000 1.07170400e-02
-2.92123000 1.08791200e-02
-2.87398000 1.11344400e-02
-2.84398000 1.12966100e-02
-2.81398000 1.14588100e-02
-2.78398000 1.16210900e-02
-2.75398000 1.17834300e-02
-2.72398000 1.19458700e-02
-2.69398000 1.21084000e-02
-2.66398000 1.22710500e-02
-2.63398000 1.24338200e-02
-2.60398000 1.25967600e-02
-2.57398000 1.27598300e-02
-2.54398000 1.29230700e-02
-2.51398000 1.30865000e-02
-2.48398000 1.32501100e-02
-2.45398000 1.34139600e-02
-2.42398000 1.35780200e-02
-2.39398000 1.37423400e-02
-2.36398000 1.39069100e-02
-2.33398000 1.40717500e-02
-2.30398000 1.42368800e-02
-2.27398000 1.44023200e-02
-2.24398000 1.45680900e-02
-2.21398000 1.47342200e-02
-2.18398000 1.49006800e-02
-2.13673000 1.51636600e-02
-2.10673000 1.53311700e-02
-2.07673000 1.54991000e-02
-2.04673000 1.56675000e-02
-2.01673000 1.58363700e-02
-1.98673000 1.60057300e-02
-1.95673000 1.61756400e-02
-1.92673000 1.63460600e-02
-1.89673000 1.65170800e-02
-1.86673000 1.66887000e-02
-1.83673000 1.68609300e-02
-1.80673000 1.70338300e-02
-1.77673000 1.72074000e-02
-1.74673000 1.73816900e-02
-1.71673000 1.75567100e-02
-1.68673000 1.77325300e-02
-1.65673000 1.79091600e-02
-1.62673000 1.80866400e-02
-1.59673000 1.82650100e-02
-1.56673000 1.84442900e-02
-1.53673000 1.86245500e-02
-1.50673000 1.88058400e-02
-1.47673000 1.89881700e-02
-1.44673000 1.91716100e-02
-1.39948000 1.94628900e-02
-1.36948000 1.96494000e-02
-1.33948000 1.98372300e-02
-1.30948000 2.00264100e-02
-1.27948000 2.02170200e-02
-1.24948000 2.04091200e-02
-1.21948000 2.06027700e-02
-1.18948000 2.07980900e-02
-1.15948000 2.09951100e-02
-1.12948000 2.11939500e-02
-1.09948000 2.13946800e-02
-1.06948000 2.15974000e-02
-1.03948000 2.18022200e-02
-1.00948000 2.20092500e-02
-0.97947800 2.22186300e-02
-0.94947800 2.24304400e-02
-0.91947800 2.26448500e-02
-0.88947800 2.28620000e-02
-0.85947800 2.30820300e-02
-0.82947800 2.33051300e-02
-0.79947800 2.35314600e-02
-0.76947800 2.37612200e-02
-0.73947800 2.39946100e-02
-0.70947800 2.42318900e-02
-0.66222900 2.46140300e-02
-0.63222900 2.48624200e-02
-0.60222900 2.51156800e-02
-0.57222900 2.53741000e-02
-0.54222900 2.56380400e-02
-0.51222900 2.59079200e-02
-0.48222900 2.61841400e-02
-0.45222900 2.64671700e-02
-0.42222900 2.67575300e-02
-0.39222900 2.70558100e-02
-0.36222900 2.73626100e-02
-0.33222900 2.76786200e-02
-0.30222900 2.80046200e-02
-0.27222900 2.83414400e-02
-0.24222900 2.86900500e-02
-0.21222900 2.90514500e-02
-0.18222900 2.94268600e-02
-0.15222900 2.98176000e-02
-0.12222900 3.02251000e-02
-0.09222850 3.06510000e-02
-0.06222850 3.10975000e-02
-0.03222850 3.15663000e-02
-0.00222851 3.20602000e-02
0.02777150 3.25819000e-02
0.07502070 3.34671000e-02
0.10502100 3.40759000e-02
0.13502100 3.47268000e-02
0.16502100 3.54234000e-02
0.19502100 3.61722000e-02
0.22502100 3.69815000e-02
0.25502100 3.78602000e-02
0.28502100 3.88186000e-02
0.31502100 3.98684000e-02
0.34502100 4.10249000e-02
0.37502100 4.23055000e-02
0.40502100 4.37324000e-02
0.43502100 4.53325000e-02
0.46502100 4.71388000e-02
0.49502100 4.91938000e-02
0.52502100 5.15504000e-02
0.55502100 5.42767000e-02
0.58502100 5.74611000e-02
0.61502100 6.12204000e-02
0.64502100 6.57109000e-02
0.67502100 7.11454000e-02
0.70502100 7.78197000e-02
0.73502100 8.61553000e-02
0.76502100 9.67667000e-02
