# E(MeV)  S_NSDRNSDR(K=0) for Fe64_DDPCX
-6.56022000 -4.02036000e-03
-6.53022000 -3.93700000e-03
-6.50022000 -3.85425000e-03
-6.47022000 -3.77208000e-03
-6.44022000 -3.69050000e-03
-6.41022000 -3.60948000e-03
-6.38022000 -3.52903000e-03
-6.35022000 -3.44913000e-03
-6.32022000 -3.36977000e-03
-6.29022000 -3.29095000e-03
-6.26022000 -3.21266000e-03
-6.23022000 -3.13488000e-03
-6.20022000 -3.05762000e-03
-6.17022000 -2.98085000e-03
-6.14022000 -2.90458000e-03
-6.11022000 -2.82879000e-03
-6.08022000 -2.75349000e-03
-6.05022000 -2.67865000e-03
-6.02022000 -2.60427000e-03
-5.99022000 -2.53035000e-03
-5.96022000 -2.45688000e-03
-5.93022000 -2.38384000e-03
-5.90022000 -2.31124000e-03
-5.87022000 -2.23907000e-03
-5.82297000 -2.12624000e-03
-5.79297000 -2.05514000e-03
-5.76297000 -1.98443000e-03
-5.73297000 -1.91412000e-03
-5.70297000 -1.84420000e-03
-5.67297000 -1.77466000e-03
-5.64297000 -1.70550000e-03
-5.61297000 -1.63671000e-03
-5.58297000 -1.56828000e-03
-5.55297000 -1.50021000e-03
-5.52297000 -1.43249000e-03
-5.49297000 -1.36512000e-03
-5.46297000 -1.29809000e-03
-5.43297000 -1.23139000e-03
-5.40297000 -1.16502000e-03
-5.37297000 -1.09898000e-03
-5.34297000 -1.03325000e-03
-5.31297000 -9.67840000e-04
-5.28297000 -9.02735000e-04
-5.25297000 -8.37932000e-04
-5.22297000 -7.73426000e-04
-5.19297000 -7.09212000e-04
-5.16297000 -6.45285000e-04
-5.13297000 -5.81640000e-04
-5.08572000 -4.81959000e-04
-5.05572000 -4.19016000e-04
-5.02572000 -3.56338000e-04
-4.99572000 -2.93919000e-04
-4.96572000 -2.31756000e-04
-4.93572000 -1.69842000e-04
-4.90572000 -1.08175000e-04
-4.87572000 -4.67480000e-05
-4.84572000 1.44420000e-05
-4.81572000 7.53997000e-05
-4.78572000 1.36130000e-04
-4.75572000 1.96636000e-04
-4.72572000 2.56923000e-04
-4.69572000 3.16996000e-04
-4.66572000 3.76857000e-04
-4.63572000 4.36513000e-04
-4.60572000 4.95966000e-04
-4.57572000 5.55220000e-04
-4.54572000 6.14281000e-04
-4.51572000 6.73151000e-04
-4.48572000 7.31836000e-04
-4.45572000 7.90338000e-04
-4.42572000 8.48661000e-04
-4.39572000 9.06811000e-04
-4.34847000 9.98051000e-04
-4.31847000 1.05577000e-03
-4.28847000 1.11333000e-03
-4.25847000 1.17073000e-03
-4.22847000 1.22798000e-03
-4.19847000 1.28507000e-03
-4.16847000 1.34203000e-03
-4.13847000 1.39884000e-03
-4.10847000 1.45551000e-03
-4.07847000 1.51205000e-03
-4.04847000 1.56846000e-03
-4.01847000 1.62473000e-03
-3.98847000 1.68089000e-03
-3.95847000 1.73692000e-03
-3.92847000 1.79284000e-03
-3.89847000 1.84865000e-03
-3.86847000 1.90434000e-03
-3.83847000 1.95993000e-03
-3.80847000 2.01542000e-03
-3.77847000 2.07081000e-03
-3.74847000 2.12610000e-03
-3.71847000 2.18130000e-03
-3.68847000 2.23641000e-03
-3.65847000 2.29143000e-03
-3.61123000 2.37793000e-03
-3.58123000 2.43275000e-03
-3.55123000 2.48750000e-03
-3.52123000 2.54218000e-03
-3.49123000 2.59679000e-03
-3.46123000 2.65135000e-03
-3.43123000 2.70584000e-03
-3.40123000 2.76027000e-03
-3.37123000 2.81466000e-03
-3.34123000 2.86899000e-03
-3.31123000 2.92329000e-03
-3.28123000 2.97754000e-03
-3.25123000 3.03175000e-03
-3.22123000 3.08592000e-03
-3.19123000 3.14007000e-03
-3.16123000 3.19419000e-03
-3.13123000 3.24829000e-03
-3.10123000 3.30237000e-03
-3.07123000 3.35643000e-03
-3.04123000 3.41047000e-03
-3.01123000 3.46451000e-03
-2.98123000 3.51855000e-03
-2.95123000 3.57258000e-03
-2.92123000 3.62662000e-03
-2.87398000 3.71174000e-03
-2.84398000 3.76581000e-03
-2.81398000 3.81989000e-03
-2.78398000 3.87399000e-03
-2.75398000 3.92811000e-03
-2.72398000 3.98227000e-03
-2.69398000 4.03646000e-03
-2.66398000 4.09069000e-03
-2.63398000 4.14496000e-03
-2.60398000 4.19928000e-03
-2.57398000 4.25365000e-03
-2.54398000 4.30807000e-03
-2.51398000 4.36256000e-03
-2.48398000 4.41711000e-03
-2.45398000 4.47174000e-03
-2.42398000 4.52644000e-03
-2.39398000 4.58122000e-03
-2.36398000 4.63609000e-03
-2.33398000 4.69105000e-03
-2.30398000 4.74610000e-03
-2.27398000 4.80126000e-03
-2.24398000 4.85653000e-03
-2.21398000 4.91192000e-03
-2.18398000 4.96742000e-03
-2.13673000 5.05510000e-03
-2.10673000 5.11095000e-03
-2.07673000 5.16694000e-03
-2.04673000 5.22308000e-03
-2.01673000 5.27939000e-03
-1.98673000 5.33585000e-03
-1.95673000 5.39250000e-03
-1.92673000 5.44932000e-03
-1.89673000 5.50634000e-03
-1.86673000 5.56356000e-03
-1.83673000 5.62099000e-03
-1.80673000 5.67863000e-03
-1.77673000 5.73650000e-03
-1.74673000 5.79461000e-03
-1.71673000 5.85297000e-03
-1.68673000 5.91159000e-03
-1.65673000 5.97048000e-03
-1.62673000 6.02966000e-03
-1.59673000 6.08913000e-03
-1.56673000 6.14891000e-03
-1.53673000 6.20901000e-03
-1.50673000 6.26946000e-03
-1.47673000 6.33025000e-03
-1.44673000 6.39141000e-03
-1.39948000 6.48853000e-03
-1.36948000 6.55072000e-03
-1.33948000 6.61335000e-03
-1.30948000 6.67643000e-03
-1.27948000 6.73998000e-03
-1.24948000 6.80404000e-03
-1.21948000 6.86861000e-03
-1.18948000 6.93373000e-03
-1.15948000 6.99943000e-03
-1.12948000 7.06573000e-03
-1.09948000 7.13266000e-03
-1.06948000 7.20026000e-03
-1.03948000 7.26856000e-03
-1.00948000 7.33759000e-03
-0.97947800 7.40741000e-03
-0.94947800 7.47804000e-03
-0.91947800 7.54953000e-03
-0.88947800 7.62194000e-03
-0.85947800 7.69531000e-03
-0.82947800 7.76971000e-03
-0.79947800 7.84518000e-03
-0.76947800 7.92180000e-03
-0.73947800 7.99963000e-03
-0.70947800 8.07875000e-03
-0.66222900 8.20619000e-03
-0.63222900 8.28902000e-03
-0.60222900 8.37348000e-03
-0.57222900 8.45966000e-03
-0.54222900 8.54768000e-03
-0.51222900 8.63768000e-03
-0.48222900 8.72980000e-03
-0.45222900 8.82419000e-03
-0.42222900 8.92103000e-03
-0.39222900 9.02051000e-03
-0.36222900 9.12283000e-03
-0.33222900 9.22822000e-03
-0.30222900 9.33694000e-03
-0.27222900 9.44928000e-03
-0.24222900 9.56555000e-03
-0.21222900 9.68609000e-03
-0.18222900 9.81130000e-03
-0.15222900 9.94162000e-03
-0.12222900 1.00775000e-02
-0.09222850 1.02196000e-02
-0.06222850 1.03685000e-02
-0.03222850 1.05249000e-02
-0.00222851 1.06896000e-02
0.02777150 1.08635000e-02
0.07502070 1.11589000e-02
0.10502100 1.13621000e-02
0.13502100 1.15794000e-02
0.16502100 1.18118000e-02
0.19502100 1.20614000e-02
0.22502100 1.23313000e-02
0.25502100 1.26244000e-02
0.28502100 1.29440000e-02
0.31502100 1.32942000e-02
0.34502100 1.36799000e-02
0.37502100 1.41071000e-02
0.40502100 1.45830000e-02
0.43502100 1.51167000e-02
0.46502100 1.57192000e-02
0.49502100 1.64046000e-02
0.52502100 1.71906000e-02
0.55502100 1.80999000e-02
0.58502100 1.91619000e-02
0.61502100 2.04156000e-02
0.64502100 2.19131000e-02
0.67502100 2.37252000e-02
0.70502100 2.59507000e-02
0.73502100 2.87299000e-02
0.76502100 3.22675000e-02
