# E(MeV)  S_GAMTGAMT(K=1) for Fm325_DDPCX
-15.53450000 4.86720000e-03
-15.50450000 6.28656000e-03
-15.47450000 8.50186000e-03
-15.44450000 8.78007000e-03
-15.41450000 6.61634000e-03
-15.38450000 5.08552000e-03
-15.35450000 4.32280000e-03
-15.32450000 3.93489000e-03
-15.29450000 3.72432000e-03
-15.26450000 3.60512000e-03
-15.23450000 3.53855000e-03
-15.20450000 3.50738000e-03
-15.17450000 3.50694000e-03
-15.14450000 3.54505000e-03
-15.11450000 3.64684000e-03
-15.08450000 3.81145000e-03
-15.05450000 3.81795000e-03
-15.02450000 3.65486000e-03
-14.99450000 3.54805000e-03
-14.96450000 3.50029000e-03
-14.93450000 3.48192000e-03
-14.90450000 3.47825000e-03
-14.87450000 3.48285000e-03
-14.84450000 3.49271000e-03
-14.81450000 3.50637000e-03
-14.78450000 3.52312000e-03
-14.75450000 3.54264000e-03
-14.72450000 3.56492000e-03
-14.69450000 3.59014000e-03
-14.66450000 3.61875000e-03
-14.63450000 3.65153000e-03
-14.60450000 3.68986000e-03
-14.57450000 3.73621000e-03
-14.54450000 3.79541000e-03
-14.51450000 3.87769000e-03
-14.48450000 4.00576000e-03
-14.45450000 4.21714000e-03
-14.42450000 4.44035000e-03
-14.39450000 4.39772000e-03
-14.36450000 4.28914000e-03
-14.33450000 4.27512000e-03
-14.30450000 4.32922000e-03
-14.27450000 4.42962000e-03
-14.24450000 4.57185000e-03
-14.21450000 4.76194000e-03
-14.18450000 5.01484000e-03
-14.15450000 5.35701000e-03
-14.12450000 5.83375000e-03
-14.09450000 6.52500000e-03
-14.06450000 7.57982000e-03
-14.03450000 9.29660000e-03
-14.00450000 1.23207000e-02
-13.97450000 1.81220000e-02
-13.94450000 2.95483000e-02
-13.89980000 4.71499000e-02
-13.86980000 3.48928000e-02
-13.83980000 2.17291000e-02
-13.80980000 1.50916000e-02
-13.77980000 1.24895000e-02
-13.74980000 1.23528000e-02
-13.71980000 1.23736000e-02
-13.68980000 1.00393000e-02
-13.65980000 7.91623000e-03
-13.62980000 6.75010000e-03
-13.59980000 6.12557000e-03
-13.56980000 5.79060000e-03
-13.53980000 5.64124000e-03
-13.50980000 5.65275000e-03
-13.47980000 5.86749000e-03
-13.44980000 6.43151000e-03
-13.41980000 7.59801000e-03
-13.38980000 8.91217000e-03
-13.35980000 8.83460000e-03
-13.32980000 7.75435000e-03
-13.29980000 6.81493000e-03
-13.26980000 6.29751000e-03
-13.23980000 5.89665000e-03
-13.20980000 5.62536000e-03
-13.17980000 5.54560000e-03
-13.14980000 5.61669000e-03
-13.11980000 5.82980000e-03
-13.08980000 6.11386000e-03
-13.05980000 6.35474000e-03
-13.02980000 6.77413000e-03
-12.99980000 7.57943000e-03
-12.96980000 9.07178000e-03
-12.93980000 1.19534000e-02
-12.90980000 1.72196000e-02
-12.87980000 2.20588000e-02
-12.84980000 2.02776000e-02
-12.81980000 1.77441000e-02
-12.78980000 1.56528000e-02
-12.75980000 1.46645000e-02
-12.72980000 1.60482000e-02
-12.69980000 1.72390000e-02
-12.66980000 1.87695000e-02
-12.63980000 2.27703000e-02
-12.60980000 2.64575000e-02
-12.57980000 2.32447000e-02
-12.54980000 1.72655000e-02
-12.51980000 1.45976000e-02
-12.48980000 1.49318000e-02
-12.45980000 1.75185000e-02
-12.42980000 1.75233000e-02
-12.39980000 1.50626000e-02
-12.36980000 1.36801000e-02
-12.33980000 1.28082000e-02
-12.30980000 1.15161000e-02
-12.26510000 1.11944000e-02
-12.23510000 1.18059000e-02
-12.20510000 1.15058000e-02
-12.17510000 1.12345000e-02
-12.14510000 1.24144000e-02
-12.11510000 1.55769000e-02
-12.08510000 1.91141000e-02
-12.05510000 2.05390000e-02
-12.02510000 1.89489000e-02
-11.99510000 1.87102000e-02
-11.96510000 2.26009000e-02
-11.93510000 2.43166000e-02
-11.90510000 1.87577000e-02
-11.87510000 1.40877000e-02
-11.84510000 1.16982000e-02
-11.81510000 1.08227000e-02
-11.78510000 1.07169000e-02
-11.75510000 1.10789000e-02
-11.72510000 1.23676000e-02
-11.69510000 1.51105000e-02
-11.66510000 1.98015000e-02
-11.63510000 2.65550000e-02
-11.60510000 3.26904000e-02
-11.57510000 3.17854000e-02
-11.54510000 3.07404000e-02
-11.51510000 3.61616000e-02
-11.48510000 3.84485000e-02
-11.45510000 3.73736000e-02
-11.42510000 4.05483000e-02
-11.39510000 3.87127000e-02
-11.36510000 3.34590000e-02
-11.33510000 2.80400000e-02
-11.30510000 2.07692000e-02
-11.27510000 1.55128000e-02
-11.24510000 1.27003000e-02
-11.21510000 1.17073000e-02
-11.18510000 1.20964000e-02
-11.15510000 1.23330000e-02
-11.12510000 1.07338000e-02
-11.09510000 9.43548000e-03
-11.06510000 8.93500000e-03
-11.03510000 8.44920000e-03
-11.00510000 7.89608000e-03
-10.97510000 7.62834000e-03
-10.94510000 7.63534000e-03
-10.91510000 7.86482000e-03
-10.88510000 8.30111000e-03
-10.85510000 8.81860000e-03
-10.82510000 9.30470000e-03
-10.79510000 9.94794000e-03
-10.76510000 9.96557000e-03
-10.73510000 9.98679000e-03
-10.70510000 1.07963000e-02
-10.67510000 1.23658000e-02
-10.63050000 1.50318000e-02
-10.60050000 1.88806000e-02
-10.57050000 2.16631000e-02
-10.54050000 1.91870000e-02
-10.51050000 1.45755000e-02
-10.48050000 1.18418000e-02
-10.45050000 1.07460000e-02
-10.42050000 1.05737000e-02
-10.39050000 1.07413000e-02
-10.36050000 1.13929000e-02
-10.33050000 1.33513000e-02
-10.30050000 1.56710000e-02
-10.27050000 1.70793000e-02
-10.24050000 1.56822000e-02
-10.21050000 1.30176000e-02
-10.18050000 1.16405000e-02
-10.15050000 1.08456000e-02
-10.12050000 1.07656000e-02
-10.09050000 1.16890000e-02
-10.06050000 1.33373000e-02
-10.03050000 1.44436000e-02
-10.00050000 1.51953000e-02
-9.97047000 1.56167000e-02
-9.94047000 1.44043000e-02
-9.91047000 1.29200000e-02
-9.88047000 1.27904000e-02
-9.85047000 1.41006000e-02
-9.82047000 1.70825000e-02
-9.79047000 2.30753000e-02
-9.76047000 3.06886000e-02
-9.73047000 3.16692000e-02
-9.70047000 2.78612000e-02
-9.67047000 2.14604000e-02
-9.64047000 1.69390000e-02
-9.61047000 1.46611000e-02
-9.58047000 1.35677000e-02
-9.55047000 1.37737000e-02
-9.52047000 1.46979000e-02
-9.49047000 1.51827000e-02
-9.46047000 1.66772000e-02
-9.43047000 2.15187000e-02
-9.40047000 3.01666000e-02
-9.37047000 3.21911000e-02
-9.34047000 2.45131000e-02
-9.31047000 1.89519000e-02
-9.28047000 1.53565000e-02
-9.25047000 1.28402000e-02
-9.22047000 1.12922000e-02
-9.19047000 1.05369000e-02
-9.16047000 1.02635000e-02
-9.13047000 1.00062000e-02
-9.10047000 9.82607000e-03
-9.07047000 1.00070000e-02
-9.04047000 1.06104000e-02
-8.99579000 1.19362000e-02
-8.96579000 1.22743000e-02
-8.93579000 1.28202000e-02
-8.90579000 1.42247000e-02
-8.87579000 1.58499000e-02
-8.84579000 1.55457000e-02
-8.81579000 1.48807000e-02
-8.78579000 1.45590000e-02
-8.75579000 1.46738000e-02
-8.72579000 1.44631000e-02
-8.69579000 1.39353000e-02
-8.66579000 1.36664000e-02
-8.63579000 1.40262000e-02
-8.60579000 1.54208000e-02
-8.57579000 1.82564000e-02
-8.54579000 2.42811000e-02
-8.51579000 3.19779000e-02
-8.48579000 2.98493000e-02
-8.45579000 2.26316000e-02
-8.42579000 1.94006000e-02
-8.39579000 1.97606000e-02
-8.36579000 2.07751000e-02
-8.33579000 1.96659000e-02
-8.30579000 1.94790000e-02
-8.27579000 2.01378000e-02
-8.24579000 2.05285000e-02
-8.21579000 2.13401000e-02
-8.18579000 2.38693000e-02
-8.15579000 2.91199000e-02
-8.12579000 3.51177000e-02
-8.09579000 3.94797000e-02
-8.06579000 4.13142000e-02
-8.03579000 4.21772000e-02
-8.00579000 3.96700000e-02
-7.97579000 3.65103000e-02
-7.94579000 3.51810000e-02
-7.91579000 3.03294000e-02
-7.88579000 2.71006000e-02
-7.85579000 2.66034000e-02
-7.82579000 2.64468000e-02
-7.79579000 2.67214000e-02
-7.76579000 2.74299000e-02
-7.73579000 2.80455000e-02
-7.70579000 3.20783000e-02
-7.67579000 3.57370000e-02
-7.64579000 3.35980000e-02
-7.61579000 3.18329000e-02
-7.58579000 3.49010000e-02
-7.55579000 3.84343000e-02
-7.52579000 3.48297000e-02
-7.49579000 3.04929000e-02
-7.46579000 3.03103000e-02
-7.43579000 3.15929000e-02
-7.40579000 3.50260000e-02
-7.36111000 5.46913000e-02
-7.33111000 6.94354000e-02
-7.30111000 6.27497000e-02
-7.27111000 5.21496000e-02
-7.24111000 4.27711000e-02
-7.21111000 3.46139000e-02
-7.18111000 3.03897000e-02
-7.15111000 2.92098000e-02
-7.12111000 2.86808000e-02
-7.09111000 2.99349000e-02
-7.06111000 3.32294000e-02
-7.03111000 3.46163000e-02
-7.00111000 3.27792000e-02
-6.97111000 2.80788000e-02
-6.94111000 2.35252000e-02
-6.91111000 2.09845000e-02
-6.88111000 2.05570000e-02
-6.85111000 2.07571000e-02
-6.82111000 1.91842000e-02
-6.79111000 1.77134000e-02
-6.76111000 1.73110000e-02
-6.73111000 1.78765000e-02
-6.70111000 1.94411000e-02
-6.67111000 2.21019000e-02
-6.64111000 2.60087000e-02
-6.61111000 3.01453000e-02
-6.58111000 3.28154000e-02
-6.55111000 3.13933000e-02
-6.52111000 2.89303000e-02
-6.49111000 2.99242000e-02
-6.46111000 3.50087000e-02
-6.43111000 4.67470000e-02
-6.40111000 6.63481000e-02
-6.37111000 7.74760000e-02
-6.34111000 7.04612000e-02
-6.31111000 5.78350000e-02
-6.28111000 4.30768000e-02
-6.25111000 3.47751000e-02
-6.22111000 3.10022000e-02
-6.19111000 2.78428000e-02
-6.16111000 2.59529000e-02
-6.13111000 2.61827000e-02
-6.10111000 2.77851000e-02
-6.07111000 2.93425000e-02
-6.04111000 3.10854000e-02
-6.01111000 3.35357000e-02
-5.98111000 3.76362000e-02
-5.95111000 4.48861000e-02
-5.92111000 5.74620000e-02
-5.89111000 6.74617000e-02
-5.86111000 7.06266000e-02
-5.83111000 8.00478000e-02
-5.80111000 1.00676000e-01
-5.77111000 1.01892000e-01
-5.72644000 6.34335000e-02
-5.69644000 5.03130000e-02
-5.66644000 4.59906000e-02
-5.63644000 4.48317000e-02
-5.60644000 4.25787000e-02
-5.57644000 4.12164000e-02
-5.54644000 3.90492000e-02
-5.51644000 3.88949000e-02
-5.48644000 4.01013000e-02
-5.45644000 3.78986000e-02
-5.42644000 3.38522000e-02
-5.39644000 3.08894000e-02
-5.36644000 2.97508000e-02
-5.33644000 3.02336000e-02
-5.30644000 3.30425000e-02
-5.27644000 3.92047000e-02
-5.24644000 4.81521000e-02
-5.21644000 5.88816000e-02
-5.18644000 6.27657000e-02
-5.15644000 5.05534000e-02
-5.12644000 4.11314000e-02
-5.09644000 3.70227000e-02
-5.06644000 3.49073000e-02
-5.03644000 3.31688000e-02
-5.00644000 3.24577000e-02
-4.97644000 3.10681000e-02
-4.94644000 3.04087000e-02
-4.91644000 3.10750000e-02
-4.88644000 3.26501000e-02
-4.85644000 3.29697000e-02
-4.82644000 3.38597000e-02
-4.79644000 3.64209000e-02
-4.76644000 3.69027000e-02
-4.73644000 3.50989000e-02
-4.70644000 3.40951000e-02
-4.67644000 3.49672000e-02
-4.64644000 3.81909000e-02
-4.61644000 4.37116000e-02
-4.58644000 5.10620000e-02
-4.55644000 5.56878000e-02
-4.52644000 5.64177000e-02
-4.49644000 5.79953000e-02
-4.46644000 6.09958000e-02
-4.43644000 6.53827000e-02
-4.40644000 6.67424000e-02
-4.37644000 6.94117000e-02
-4.34644000 7.49618000e-02
-4.31644000 7.81694000e-02
-4.28644000 8.95040000e-02
-4.25644000 1.20662000e-01
-4.22644000 1.73745000e-01
-4.19644000 1.89298000e-01
-4.16644000 1.40278000e-01
-4.13644000 1.00621000e-01
-4.09176000 7.65726000e-02
-4.06176000 7.20769000e-02
-4.03176000 7.39994000e-02
-4.00176000 7.93926000e-02
-3.97176000 8.33589000e-02
-3.94176000 8.90397000e-02
-3.91176000 9.64386000e-02
-3.88176000 1.04202000e-01
-3.85176000 1.01921000e-01
-3.82176000 9.99399000e-02
-3.79176000 1.03630000e-01
-3.76176000 1.07598000e-01
-3.73176000 1.11788000e-01
-3.70176000 1.20772000e-01
-3.67176000 1.34272000e-01
-3.64176000 1.50293000e-01
-3.61176000 1.74407000e-01
-3.58176000 2.11954000e-01
-3.55176000 2.68052000e-01
-3.52176000 3.43230000e-01
-3.49176000 4.50223000e-01
-3.46176000 6.20891000e-01
-3.43176000 8.54741000e-01
-3.40176000 1.06414000e+00
-3.37176000 1.25665000e+00
-3.34176000 1.36225000e+00
-3.31176000 1.73794000e+00
-3.28176000 2.50827000e+00
-3.25176000 2.52739000e+00
-3.22176000 1.68314000e+00
-3.19176000 1.11139000e+00
-3.16176000 7.99957000e-01
-3.13176000 6.13142000e-01
-3.10176000 5.08218000e-01
-3.07176000 4.76703000e-01
-3.04176000 5.13026000e-01
-3.01176000 4.96256000e-01
-2.98176000 3.94792000e-01
-2.95176000 3.30964000e-01
-2.92176000 3.13561000e-01
-2.89176000 3.28400000e-01
-2.86176000 3.75443000e-01
-2.83176000 4.77891000e-01
-2.80176000 6.87559000e-01
-2.77176000 1.10064000e+00
-2.74176000 1.60460000e+00
-2.71176000 1.41530000e+00
-2.68176000 9.07688000e-01
-2.65176000 6.24158000e-01
-2.62176000 5.05383000e-01
-2.59176000 4.77028000e-01
-2.56176000 5.08775000e-01
-2.53176000 5.85039000e-01
-2.50176000 7.17049000e-01
-2.45708000 1.14561000e+00
-2.42708000 1.72915000e+00
-2.39708000 2.32946000e+00
-2.36708000 2.21849000e+00
-2.33708000 2.03129000e+00
-2.30708000 2.17257000e+00
-2.27708000 1.94362000e+00
-2.24708000 1.52481000e+00
-2.21708000 1.38678000e+00
-2.18708000 1.59257000e+00
-2.15708000 2.21375000e+00
-2.12708000 3.52785000e+00
-2.09708000 5.08941000e+00
-2.06708000 4.40050000e+00
-2.03708000 2.73794000e+00
-2.00708000 1.80238000e+00
-1.97708000 1.41164000e+00
-1.94708000 1.27931000e+00
-1.91708000 1.18509000e+00
-1.88708000 1.12396000e+00
-1.85708000 1.24164000e+00
-1.82708000 1.62785000e+00
-1.79708000 2.44080000e+00
-1.76708000 3.92818000e+00
-1.73708000 5.20577000e+00
-1.70708000 4.06029000e+00
-1.67708000 2.41483000e+00
-1.64708000 1.50591000e+00
-1.61708000 1.06158000e+00
-1.58708000 8.46259000e-01
-1.55708000 7.61164000e-01
-1.52708000 7.52060000e-01
-1.49708000 8.12652000e-01
-1.46708000 1.00838000e+00
-1.43708000 1.19568000e+00
-1.40708000 1.04912000e+00
-1.37708000 8.42685000e-01
-1.34708000 8.07137000e-01
-1.31708000 8.30325000e-01
-1.28708000 8.16154000e-01
-1.25708000 8.21403000e-01
-1.22708000 7.08470000e-01
-1.19708000 5.32707000e-01
-1.16708000 4.21167000e-01
-1.13708000 3.64516000e-01
-1.10708000 3.31663000e-01
-1.07708000 3.05788000e-01
-1.04708000 2.77740000e-01
-1.01708000 2.61879000e-01
-0.98708400 2.65158000e-01
-0.95708400 2.83160000e-01
-0.92708400 3.20743000e-01
-0.89708400 3.83469000e-01
-0.86708400 4.70586000e-01
-0.82240700 7.07497000e-01
-0.79240700 1.01634000e+00
-0.76240700 1.34921000e+00
-0.73240700 1.75940000e+00
-0.70240700 2.57426000e+00
-0.67240700 3.54245000e+00
-0.64240700 3.68675000e+00
-0.61240700 2.72669000e+00
-0.58240700 1.63886000e+00
-0.55240700 1.03023000e+00
-0.52240700 7.29231000e-01
-0.49240700 5.82929000e-01
-0.46240700 5.25844000e-01
-0.43240700 4.83024000e-01
-0.40240700 4.29608000e-01
-0.37240700 4.09502000e-01
-0.34240700 4.25497000e-01
-0.31240700 4.36875000e-01
-0.28240700 4.35434000e-01
-0.25240700 4.41006000e-01
-0.22240700 4.40993000e-01
-0.19240700 4.50429000e-01
-0.16240700 4.72109000e-01
-0.13240700 5.37116000e-01
-0.10240700 5.23397000e-01
-0.07240690 4.56059000e-01
-0.04240690 3.91763000e-01
-0.01240690 3.05516000e-01
0.01759310 2.54553000e-01
0.04759310 2.39128000e-01
0.07759310 2.37506000e-01
0.10759300 2.32884000e-01
0.13759300 2.32251000e-01
0.16759300 2.52187000e-01
0.19759300 3.06929000e-01
0.22759300 3.86497000e-01
0.25759300 3.89116000e-01
0.28759300 3.30335000e-01
0.31759300 2.80821000e-01
0.34759300 2.43417000e-01
0.37759300 2.14207000e-01
0.40759300 1.96825000e-01
0.43759300 1.95966000e-01
0.46759300 2.07562000e-01
0.49759300 2.25299000e-01
0.52759300 2.60450000e-01
0.55759300 3.33148000e-01
0.58759300 4.72610000e-01
0.61759300 7.20702000e-01
0.64759300 1.01716000e+00
0.67759300 1.23757000e+00
0.70759300 1.29100000e+00
0.73759300 1.05283000e+00
0.76759300 8.88878000e-01
