# E(MeV)  S_GAMTGAMT(K=0) for Fr236_DDPCX
-7.42426000 1.34599000e-03
-7.39426000 1.57508000e-03
-7.36426000 1.67295000e-03
-7.33426000 1.71526000e-03
-7.30426000 1.86401000e-03
-7.27426000 2.02758000e-03
-7.24426000 2.13361000e-03
-7.21426000 2.20174000e-03
-7.18426000 2.24811000e-03
-7.15426000 2.28126000e-03
-7.12426000 2.30751000e-03
-7.09426000 2.32676000e-03
-7.06426000 2.33823000e-03
-7.03426000 2.34211000e-03
-7.00426000 2.33787000e-03
-6.97426000 2.32402000e-03
-6.94426000 2.29792000e-03
-6.91426000 2.25519000e-03
-6.88426000 2.18860000e-03
-6.85426000 2.08585000e-03
-6.82426000 1.92497000e-03
-6.79426000 1.66419000e-03
-6.76426000 1.21787000e-03
-6.73426000 3.96844000e-04
-6.70426000 -1.21767000e-03
-6.67426000 -4.14525000e-03
-6.64426000 -6.29528000e-03
-6.60061000 -4.00061000e-03
-6.57061000 -3.86895000e-03
-6.54061000 -3.12169000e-03
-6.51061000 -8.68416000e-04
-6.48061000 6.66360000e-04
-6.45061000 1.47895000e-03
-6.42061000 1.93255000e-03
-6.39061000 2.20993000e-03
-6.36061000 2.39378000e-03
-6.33061000 2.52394000e-03
-6.30061000 2.62116000e-03
-6.27061000 2.69708000e-03
-6.24061000 2.75862000e-03
-6.21061000 2.81011000e-03
-6.18061000 2.85437000e-03
-6.15061000 2.89329000e-03
-6.12061000 2.92820000e-03
-6.09061000 2.96005000e-03
-6.06061000 2.98952000e-03
-6.03061000 3.01712000e-03
-6.00061000 3.04326000e-03
-5.97061000 3.06822000e-03
-5.94061000 3.09224000e-03
-5.91061000 3.11550000e-03
-5.88061000 3.13817000e-03
-5.85061000 3.16034000e-03
-5.82061000 3.18214000e-03
-5.77695000 3.21333000e-03
-5.74695000 3.23451000e-03
-5.71695000 3.25553000e-03
-5.68695000 3.27645000e-03
-5.65695000 3.29731000e-03
-5.62695000 3.31814000e-03
-5.59695000 3.33897000e-03
-5.56695000 3.35984000e-03
-5.53695000 3.38076000e-03
-5.50695000 3.40176000e-03
-5.47695000 3.42287000e-03
-5.44695000 3.44409000e-03
-5.41695000 3.46546000e-03
-5.38695000 3.48699000e-03
-5.35695000 3.50870000e-03
-5.32695000 3.53060000e-03
-5.29695000 3.55271000e-03
-5.26695000 3.57506000e-03
-5.23695000 3.59765000e-03
-5.20695000 3.62052000e-03
-5.17695000 3.64367000e-03
-5.14695000 3.66713000e-03
-5.11695000 3.69092000e-03
-5.08695000 3.71507000e-03
-5.05695000 3.73961000e-03
-5.02695000 3.76456000e-03
-4.99695000 3.78997000e-03
-4.95330000 3.82783000e-03
-4.92330000 3.85454000e-03
-4.89330000 3.88188000e-03
-4.86330000 3.90994000e-03
-4.83330000 3.93879000e-03
-4.80330000 3.96858000e-03
-4.77330000 3.99944000e-03
-4.74330000 4.03159000e-03
-4.71330000 4.06531000e-03
-4.68330000 4.10096000e-03
-4.65330000 4.13907000e-03
-4.62330000 4.18043000e-03
-4.59330000 4.22620000e-03
-4.56330000 4.27818000e-03
-4.53330000 4.33936000e-03
-4.50330000 4.41483000e-03
-4.47330000 4.51397000e-03
-4.44330000 4.65515000e-03
-4.41330000 4.87643000e-03
-4.38330000 5.26085000e-03
-4.35330000 5.99266000e-03
-4.32330000 7.17320000e-03
-4.29330000 7.49744000e-03
-4.26330000 6.41978000e-03
-4.23330000 5.60957000e-03
-4.20330000 5.22125000e-03
-4.17330000 5.04330000e-03
-4.12965000 4.94914000e-03
-4.09965000 4.93960000e-03
-4.06965000 4.95578000e-03
-4.03965000 4.99132000e-03
-4.00965000 5.04493000e-03
-3.97965000 5.11971000e-03
-3.94965000 5.22508000e-03
-3.91965000 5.38281000e-03
-3.88965000 5.64299000e-03
-3.85965000 6.11906000e-03
-3.82965000 6.96197000e-03
-3.79965000 7.60251000e-03
-3.76965000 6.98683000e-03
-3.73965000 6.28732000e-03
-3.70965000 5.95016000e-03
-3.67965000 5.81701000e-03
-3.64965000 5.78349000e-03
-3.61965000 5.79736000e-03
-3.58965000 5.82737000e-03
-3.55965000 5.87546000e-03
-3.52965000 5.94138000e-03
-3.49965000 6.02138000e-03
-3.46965000 6.11373000e-03
-3.43965000 6.21844000e-03
-3.40965000 6.33694000e-03
-3.37965000 6.47006000e-03
-3.34965000 6.61164000e-03
-3.30599000 6.84183000e-03
-3.27599000 7.02881000e-03
-3.24599000 7.24384000e-03
-3.21599000 7.49270000e-03
-3.18599000 7.78390000e-03
-3.15599000 8.12963000e-03
-3.12599000 8.54748000e-03
-3.09599000 9.06348000e-03
-3.06599000 9.71762000e-03
-3.03599000 1.05742000e-02
-3.00599000 1.17428000e-02
-2.97599000 1.34195000e-02
-2.94599000 1.59541000e-02
-2.91599000 2.00249000e-02
-2.88599000 2.73481000e-02
-2.85599000 4.12565000e-02
-2.82599000 6.05590000e-02
-2.79599000 6.13869000e-02
-2.76599000 5.03858000e-02
-2.73599000 5.02253000e-02
-2.70599000 6.15077000e-02
-2.67599000 8.82535000e-02
-2.64599000 1.30218000e-01
-2.61599000 1.35059000e-01
-2.58599000 9.88028000e-02
-2.55599000 6.32618000e-02
-2.52599000 4.10726000e-02
-2.48234000 2.65981000e-02
-2.45234000 2.21412000e-02
-2.42234000 1.91052000e-02
-2.39234000 1.64903000e-02
-2.36234000 1.46706000e-02
-2.33234000 1.35433000e-02
-2.30234000 1.28673000e-02
-2.27234000 1.24459000e-02
-2.24234000 1.20378000e-02
-2.21234000 1.17123000e-02
-2.18234000 1.15267000e-02
-2.15234000 1.14442000e-02
-2.12234000 1.14374000e-02
-2.09234000 1.14923000e-02
-2.06234000 1.16032000e-02
-2.03234000 1.17706000e-02
-2.00234000 1.20035000e-02
-1.97234000 1.23256000e-02
-1.94234000 1.27738000e-02
-1.91234000 1.32714000e-02
-1.88234000 1.36577000e-02
-1.85234000 1.42114000e-02
-1.82234000 1.51864000e-02
-1.79234000 1.68987000e-02
-1.76234000 1.93920000e-02
-1.73234000 2.01541000e-02
-1.70234000 1.89289000e-02
-1.65869000 1.83959000e-02
-1.62869000 1.88255000e-02
-1.59869000 1.97293000e-02
-1.56869000 2.10639000e-02
-1.53869000 2.28945000e-02
-1.50869000 2.54119000e-02
-1.47869000 2.90016000e-02
-1.44869000 3.44377000e-02
-1.41869000 4.33727000e-02
-1.38869000 5.95488000e-02
-1.35869000 9.07466000e-02
-1.32869000 1.38526000e-01
-1.29869000 1.45325000e-01
-1.26869000 1.03228000e-01
-1.23869000 7.45279000e-02
-1.20869000 6.19944000e-02
-1.17869000 5.89942000e-02
-1.14869000 6.10512000e-02
-1.11869000 6.33028000e-02
-1.08869000 6.72726000e-02
-1.05869000 7.54252000e-02
-1.02869000 8.85280000e-02
-0.99868900 1.08346000e-01
-0.96868900 1.38545000e-01
-0.93868900 1.85560000e-01
-0.90868900 2.63097000e-01
-0.87868900 4.04605000e-01
-0.83503600 8.88054000e-01
-0.80503600 1.46847000e+00
-0.77503600 1.53450000e+00
-0.74503600 1.06104000e+00
-0.71503600 7.82014000e-01
-0.68503600 5.60141000e-01
-0.65503600 3.72954000e-01
-0.62503600 2.72573000e-01
-0.59503600 2.11921000e-01
-0.56503600 1.84034000e-01
-0.53503600 1.93690000e-01
-0.50503600 2.13766000e-01
-0.47503600 1.74688000e-01
-0.44503600 1.25141000e-01
-0.41503600 9.78963000e-02
-0.38503600 8.08595000e-02
-0.35503600 6.83533000e-02
-0.32503600 6.03420000e-02
-0.29503600 5.57672000e-02
-0.26503600 5.34906000e-02
-0.23503600 5.30514000e-02
-0.20503600 5.45651000e-02
-0.17503600 5.88799000e-02
-0.14503600 6.81375000e-02
-0.11503600 8.49368000e-02
-0.08503590 9.68943000e-02
-0.05503590 8.76005000e-02
-0.01138290 8.15827000e-02
0.01861710 8.75354000e-02
0.04861710 9.03152000e-02
0.07861710 9.30819000e-02
0.10861700 1.03703000e-01
0.13861700 1.24278000e-01
0.16861700 1.48967000e-01
0.19861700 1.62018000e-01
0.22861700 1.79896000e-01
0.25861700 2.16757000e-01
0.28861700 2.79517000e-01
0.31861700 3.84102000e-01
0.34861700 5.67096000e-01
0.37861700 9.12652000e-01
0.40861700 1.60295000e+00
0.43861700 2.75728000e+00
0.46861700 3.12628000e+00
0.49861700 2.03872000e+00
0.52861700 1.19924000e+00
0.55861700 7.88621000e-01
0.58861700 5.47812000e-01
0.61861700 3.74904000e-01
0.64861700 2.68677000e-01
0.67861700 2.05419000e-01
0.70861700 1.66743000e-01
0.73861700 1.42562000e-01
0.76861700 1.27693000e-01
