# E(MeV)  S_GAMTGAMT(K=0) for Gd167_DDPCX
-5.12682000 1.02183000e-02
-5.09682000 8.36026000e-03
-5.06682000 5.94072000e-03
-5.03682000 4.64960000e-03
-5.00682000 4.01066000e-03
-4.97682000 3.67516000e-03
-4.94682000 3.48815000e-03
-4.91682000 3.38016000e-03
-4.88682000 3.31762000e-03
-4.85682000 3.28308000e-03
-4.82682000 3.26682000e-03
-4.79682000 3.26315000e-03
-4.76682000 3.26859000e-03
-4.73682000 3.28093000e-03
-4.70682000 3.29873000e-03
-4.67682000 3.32106000e-03
-4.64682000 3.34731000e-03
-4.61682000 3.37708000e-03
-4.58682000 3.41014000e-03
-4.53291000 3.47749000e-03
-4.50291000 3.51941000e-03
-4.47291000 3.56464000e-03
-4.44291000 3.61334000e-03
-4.41291000 3.66577000e-03
-4.38291000 3.72223000e-03
-4.35291000 3.78312000e-03
-4.32291000 3.84888000e-03
-4.29291000 3.92010000e-03
-4.26291000 3.99745000e-03
-4.23291000 4.08173000e-03
-4.20291000 4.17393000e-03
-4.17291000 4.27524000e-03
-4.14291000 4.38708000e-03
-4.11291000 4.51123000e-03
-4.08291000 4.64986000e-03
-4.05291000 4.80570000e-03
-4.02291000 4.98220000e-03
-3.99291000 5.18377000e-03
-3.93900000 5.62842000e-03
-3.90900000 5.93709000e-03
-3.87900000 6.30556000e-03
-3.84900000 6.75295000e-03
-3.81900000 7.30751000e-03
-3.78900000 8.01303000e-03
-3.75900000 8.94122000e-03
-3.72900000 1.02181000e-02
-3.69900000 1.20846000e-02
-3.66900000 1.50438000e-02
-3.63900000 2.01870000e-02
-3.60900000 2.91391000e-02
-3.57900000 3.78402000e-02
-3.54900000 3.59228000e-02
-3.51900000 3.41217000e-02
-3.48900000 3.90419000e-02
-3.45900000 5.23691000e-02
-3.42900000 8.00779000e-02
-3.39900000 1.36918000e-01
-3.34509000 2.73398000e-01
-3.31509000 1.93263000e-01
-3.28509000 1.09226000e-01
-3.25509000 6.51747000e-02
-3.22509000 4.27974000e-02
-3.19509000 3.05035000e-02
-3.16509000 2.31827000e-02
-3.13509000 1.85237000e-02
-3.10509000 1.53983000e-02
-3.07509000 1.32124000e-02
-3.04509000 1.16323000e-02
-3.01509000 1.04594000e-02
-2.98509000 9.57058000e-03
-2.95509000 8.88589000e-03
-2.92509000 8.35196000e-03
-2.89509000 7.93205000e-03
-2.86509000 7.60029000e-03
-2.83509000 7.33808000e-03
-2.80509000 7.13180000e-03
-2.75118000 6.87131000e-03
-2.72118000 6.77570000e-03
-2.69118000 6.70932000e-03
-2.66118000 6.66888000e-03
-2.63118000 6.65199000e-03
-2.60118000 6.65703000e-03
-2.57118000 6.68307000e-03
-2.54118000 6.72979000e-03
-2.51118000 6.79750000e-03
-2.48118000 6.88717000e-03
-2.45118000 7.00053000e-03
-2.42118000 7.14024000e-03
-2.39118000 7.31018000e-03
-2.36118000 7.51591000e-03
-2.33118000 7.76540000e-03
-2.30118000 8.07033000e-03
-2.27118000 8.44820000e-03
-2.24118000 8.92643000e-03
-2.21118000 9.55027000e-03
-2.15727000 1.13360000e-02
-2.12727000 1.30786000e-02
-2.09727000 1.59693000e-02
-2.06727000 2.03910000e-02
-2.03727000 2.42486000e-02
-2.00727000 2.87776000e-02
-1.97727000 4.03042000e-02
-1.94727000 6.10229000e-02
-1.91727000 6.75841000e-02
-1.88727000 4.78820000e-02
-1.85727000 3.27564000e-02
-1.82727000 2.57049000e-02
-1.79727000 2.28471000e-02
-1.76727000 2.21738000e-02
-1.73727000 2.28877000e-02
-1.70727000 2.47467000e-02
-1.67727000 2.78201000e-02
-1.64727000 3.24445000e-02
-1.61727000 3.93126000e-02
-1.56336000 6.22091000e-02
-1.53336000 8.71139000e-02
-1.50336000 1.31801000e-01
-1.47336000 2.18761000e-01
-1.44336000 3.89285000e-01
-1.41336000 5.96971000e-01
-1.38336000 5.18150000e-01
-1.35336000 3.04248000e-01
-1.32336000 1.78254000e-01
-1.29336000 1.12828000e-01
-1.26336000 7.75813000e-02
-1.23336000 5.76144000e-02
-1.20336000 4.56201000e-02
-1.17336000 3.79239000e-02
-1.14336000 3.29836000e-02
-1.11336000 3.00888000e-02
-1.08336000 2.88515000e-02
-1.05336000 2.92526000e-02
-1.02336000 3.17168000e-02
-0.96945600 4.61016000e-02
-0.93945600 6.72080000e-02
-0.90945600 1.09791000e-01
-0.87945600 1.63591000e-01
-0.84945600 1.44957000e-01
-0.81945600 8.82798000e-02
-0.78945600 5.44786000e-02
-0.75945600 3.75902000e-02
-0.72945600 2.87413000e-02
-0.69945600 2.38456000e-02
-0.66945600 2.09643000e-02
-0.63945600 1.94222000e-02
-0.60945600 1.88794000e-02
-0.57945600 1.95686000e-02
-0.54945600 2.22123000e-02
-0.51945600 2.48899000e-02
-0.48945600 2.61026000e-02
-0.45945600 2.91958000e-02
-0.42945600 3.13810000e-02
-0.37554700 2.36420000e-02
-0.34554700 1.79516000e-02
-0.31554700 1.49854000e-02
-0.28554700 1.34700000e-02
-0.25554700 1.26324000e-02
-0.22554700 1.22758000e-02
-0.19554700 1.24062000e-02
-0.16554700 1.27909000e-02
-0.13554700 1.24254000e-02
-0.10554700 1.16843000e-02
-0.07554740 1.12588000e-02
-0.04554740 1.10795000e-02
-0.01554740 1.10366000e-02
0.01445260 1.10797000e-02
0.04445260 1.11895000e-02
0.07445260 1.13620000e-02
0.10445300 1.16047000e-02
0.13445300 1.19381000e-02
0.16445300 1.24053000e-02
0.21836100 1.39306000e-02
0.24836100 1.56764000e-02
0.27836100 1.88928000e-02
0.30836100 2.30647000e-02
0.33836100 2.25290000e-02
0.36836100 1.91444000e-02
0.39836100 1.73663000e-02
0.42836100 1.68850000e-02
0.45836100 1.71050000e-02
0.48836100 1.77768000e-02
0.51836100 1.88345000e-02
0.54836100 2.03113000e-02
0.57836100 2.23216000e-02
0.60836100 2.50827000e-02
0.63836100 2.89809000e-02
0.66836100 3.47201000e-02
0.69836100 4.36597000e-02
0.72836100 5.86258000e-02
0.75836100 8.59379000e-02
