# E(MeV)  S_GAMTGAMT(K=1) for Gd167_DDPCX
-5.12682000 3.38259000e-03
-5.09682000 3.45484000e-03
-5.06682000 3.53857000e-03
-5.03682000 3.63727000e-03
-5.00682000 3.75585000e-03
-4.97682000 3.90151000e-03
-4.94682000 4.08498000e-03
-4.91682000 4.32288000e-03
-4.88682000 4.64203000e-03
-4.85682000 5.08773000e-03
-4.82682000 5.74092000e-03
-4.79682000 6.75616000e-03
-4.76682000 8.45180000e-03
-4.73682000 1.15350000e-02
-4.70682000 1.76041000e-02
-4.67682000 2.90083000e-02
-4.64682000 3.87698000e-02
-4.61682000 2.98093000e-02
-4.58682000 1.81754000e-02
-4.53291000 9.27111000e-03
-4.50291000 7.36403000e-03
-4.47291000 6.26819000e-03
-4.44291000 5.59529000e-03
-4.41291000 5.16065000e-03
-4.38291000 4.86939000e-03
-4.35291000 4.66926000e-03
-4.32291000 4.52982000e-03
-4.29291000 4.43243000e-03
-4.26291000 4.36520000e-03
-4.23291000 4.32031000e-03
-4.20291000 4.29248000e-03
-4.17291000 4.27807000e-03
-4.14291000 4.27452000e-03
-4.11291000 4.28008000e-03
-4.08291000 4.29354000e-03
-4.05291000 4.31417000e-03
-4.02291000 4.34163000e-03
-3.99291000 4.37603000e-03
-3.93900000 4.45843000e-03
-3.90900000 4.51887000e-03
-3.87900000 4.58456000e-03
-3.84900000 4.65201000e-03
-3.81900000 4.73611000e-03
-3.78900000 4.84536000e-03
-3.75900000 4.98988000e-03
-3.72900000 5.19046000e-03
-3.69900000 5.49040000e-03
-3.66900000 5.98512000e-03
-3.63900000 6.88928000e-03
-3.60900000 8.52997000e-03
-3.57900000 1.00463000e-02
-3.54900000 9.06231000e-03
-3.51900000 7.67812000e-03
-3.48900000 7.09501000e-03
-3.45900000 7.04950000e-03
-3.42900000 7.37876000e-03
-3.39900000 8.11197000e-03
-3.34509000 1.14001000e-02
-3.31509000 1.58642000e-02
-3.28509000 2.37392000e-02
-3.25509000 2.96873000e-02
-3.22509000 2.80050000e-02
-3.19509000 2.12956000e-02
-3.16509000 1.46022000e-02
-3.13509000 1.09321000e-02
-3.10509000 9.05600000e-03
-3.07509000 8.03905000e-03
-3.04509000 7.45546000e-03
-3.01509000 7.11092000e-03
-2.98509000 6.91142000e-03
-2.95509000 6.81090000e-03
-2.92509000 6.79188000e-03
-2.89509000 6.86370000e-03
-2.86509000 7.06911000e-03
-2.83509000 7.38614000e-03
-2.80509000 7.39154000e-03
-2.75118000 7.01923000e-03
-2.72118000 6.97544000e-03
-2.69118000 6.99532000e-03
-2.66118000 7.04928000e-03
-2.63118000 7.12419000e-03
-2.60118000 7.21395000e-03
-2.57118000 7.31558000e-03
-2.54118000 7.42759000e-03
-2.51118000 7.54931000e-03
-2.48118000 7.68056000e-03
-2.45118000 7.82154000e-03
-2.42118000 7.97278000e-03
-2.39118000 8.13519000e-03
-2.36118000 8.31012000e-03
-2.33118000 8.49851000e-03
-2.30118000 8.69953000e-03
-2.27118000 8.91716000e-03
-2.24118000 9.15694000e-03
-2.21118000 9.42418000e-03
-2.15727000 1.00045000e-02
-2.12727000 1.04185000e-02
-2.09727000 1.09541000e-02
-2.06727000 1.17205000e-02
-2.03727000 1.29407000e-02
-2.00727000 1.46663000e-02
-1.97727000 1.53210000e-02
-1.94727000 1.47170000e-02
-1.91727000 1.45637000e-02
-1.88727000 1.50137000e-02
-1.85727000 1.59957000e-02
-1.82727000 1.76115000e-02
-1.79727000 2.02650000e-02
-1.76727000 2.48088000e-02
-1.73727000 3.12583000e-02
-1.70727000 3.50988000e-02
-1.67727000 3.94477000e-02
-1.64727000 5.27236000e-02
-1.61727000 7.91303000e-02
-1.56336000 7.75429000e-02
-1.53336000 5.24065000e-02
-1.50336000 3.93381000e-02
-1.47336000 3.38339000e-02
-1.44336000 3.25052000e-02
-1.41336000 3.43733000e-02
-1.38336000 3.99771000e-02
-1.35336000 5.13435000e-02
-1.32336000 6.11188000e-02
-1.29336000 5.25977000e-02
-1.26336000 4.22312000e-02
-1.23336000 3.75441000e-02
-1.20336000 3.62437000e-02
-1.17336000 3.67433000e-02
-1.14336000 3.83951000e-02
-1.11336000 4.09892000e-02
-1.08336000 4.45407000e-02
-1.05336000 4.92296000e-02
-1.02336000 5.54212000e-02
-0.96945600 7.26951000e-02
-0.93945600 8.84570000e-02
-0.90945600 1.12931000e-01
-0.87945600 1.54146000e-01
-0.84945600 2.27640000e-01
-0.81945600 3.39020000e-01
-0.78945600 4.50051000e-01
-0.75945600 6.23310000e-01
-0.72945600 7.17395000e-01
-0.69945600 5.45309000e-01
-0.66945600 3.97353000e-01
-0.63945600 3.02149000e-01
-0.60945600 2.37709000e-01
-0.57945600 2.10058000e-01
-0.54945600 2.08428000e-01
-0.51945600 2.24062000e-01
-0.48945600 2.60327000e-01
-0.45945600 3.26544000e-01
-0.42945600 4.30128000e-01
-0.37554700 6.71440000e-01
-0.34554700 7.82168000e-01
-0.31554700 1.03374000e+00
-0.28554700 1.57795000e+00
-0.25554700 2.64494000e+00
-0.22554700 4.48531000e+00
-0.19554700 5.60604000e+00
-0.16554700 3.91046000e+00
-0.13554700 2.18873000e+00
-0.10554700 1.28474000e+00
-0.07554740 8.24141000e-01
-0.04554740 5.73929000e-01
-0.01554740 4.31323000e-01
0.01445260 3.42265000e-01
0.04445260 2.68603000e-01
0.07445260 2.12620000e-01
0.10445300 1.74169000e-01
0.13445300 1.45716000e-01
0.16445300 1.23712000e-01
0.21836100 9.65844000e-02
0.24836100 8.62352000e-02
0.27836100 7.84719000e-02
0.30836100 7.23890000e-02
0.33836100 6.63715000e-02
0.36836100 6.15141000e-02
0.39836100 5.84110000e-02
0.42836100 5.65331000e-02
0.45836100 5.58724000e-02
0.48836100 5.51394000e-02
0.51836100 5.28769000e-02
0.54836100 5.33660000e-02
0.57836100 5.95651000e-02
0.60836100 7.48274000e-02
0.63836100 9.08436000e-02
0.66836100 7.82076000e-02
0.69836100 5.83257000e-02
0.72836100 4.76835000e-02
0.75836100 4.34783000e-02
