# E(MeV)  S_GAMTGAMT(K=0) for Hg211_DDPCX
-6.46334000 2.25378000e-03
-6.43334000 2.26394000e-03
-6.40334000 2.27417000e-03
-6.37334000 2.28447000e-03
-6.34334000 2.29483000e-03
-6.31334000 2.30527000e-03
-6.28334000 2.31577000e-03
-6.25334000 2.32635000e-03
-6.22334000 2.33700000e-03
-6.19334000 2.34772000e-03
-6.16334000 2.35852000e-03
-6.13334000 2.36940000e-03
-6.10334000 2.38035000e-03
-6.07334000 2.39138000e-03
-6.04334000 2.40249000e-03
-6.01334000 2.41369000e-03
-5.98334000 2.42496000e-03
-5.95334000 2.43632000e-03
-5.92334000 2.44776000e-03
-5.89334000 2.45929000e-03
-5.86334000 2.47090000e-03
-5.83334000 2.48261000e-03
-5.80334000 2.49440000e-03
-5.77334000 2.50629000e-03
-5.73578000 2.52130000e-03
-5.70578000 2.53340000e-03
-5.67578000 2.54559000e-03
-5.64578000 2.55789000e-03
-5.61578000 2.57028000e-03
-5.58578000 2.58277000e-03
-5.55578000 2.59536000e-03
-5.52578000 2.60806000e-03
-5.49578000 2.62086000e-03
-5.46578000 2.63378000e-03
-5.43578000 2.64680000e-03
-5.40578000 2.65993000e-03
-5.37578000 2.67317000e-03
-5.34578000 2.68653000e-03
-5.31578000 2.70000000e-03
-5.28578000 2.71360000e-03
-5.25578000 2.72731000e-03
-5.22578000 2.74115000e-03
-5.19578000 2.75511000e-03
-5.16578000 2.76919000e-03
-5.13578000 2.78341000e-03
-5.10578000 2.79776000e-03
-5.07578000 2.81223000e-03
-5.04578000 2.82685000e-03
-5.00821000 2.84534000e-03
-4.97821000 2.86027000e-03
-4.94821000 2.87534000e-03
-4.91821000 2.89056000e-03
-4.88821000 2.90592000e-03
-4.85821000 2.92144000e-03
-4.82821000 2.93711000e-03
-4.79821000 2.95294000e-03
-4.76821000 2.96893000e-03
-4.73821000 2.98509000e-03
-4.70821000 3.00141000e-03
-4.67821000 3.01790000e-03
-4.64821000 3.03456000e-03
-4.61821000 3.05141000e-03
-4.58821000 3.06843000e-03
-4.55821000 3.08565000e-03
-4.52821000 3.10306000e-03
-4.49821000 3.12067000e-03
-4.46821000 3.13848000e-03
-4.43821000 3.15651000e-03
-4.40821000 3.17476000e-03
-4.37821000 3.19324000e-03
-4.34821000 3.21199000e-03
-4.31821000 3.23100000e-03
-4.28065000 3.25525000e-03
-4.25065000 3.27503000e-03
-4.22065000 3.29528000e-03
-4.19065000 3.31615000e-03
-4.16065000 3.33793000e-03
-4.13065000 3.36126000e-03
-4.10065000 3.38747000e-03
-4.07065000 3.41962000e-03
-4.04065000 3.46180000e-03
-4.01065000 3.49907000e-03
-3.98065000 3.50275000e-03
-3.95065000 3.50411000e-03
-3.92065000 3.51545000e-03
-3.89065000 3.53252000e-03
-3.86065000 3.55251000e-03
-3.83065000 3.57419000e-03
-3.80065000 3.59709000e-03
-3.77065000 3.62114000e-03
-3.74065000 3.64657000e-03
-3.71065000 3.67407000e-03
-3.68065000 3.70526000e-03
-3.65065000 3.74385000e-03
-3.62065000 3.79378000e-03
-3.59065000 3.83312000e-03
-3.55309000 3.83687000e-03
-3.52309000 3.84574000e-03
-3.49309000 3.86504000e-03
-3.46309000 3.89052000e-03
-3.43309000 3.92130000e-03
-3.40309000 3.95686000e-03
-3.37309000 3.98394000e-03
-3.34309000 4.00213000e-03
-3.31309000 4.02420000e-03
-3.28309000 4.05014000e-03
-3.25309000 4.07824000e-03
-3.22309000 4.10762000e-03
-3.19309000 4.13795000e-03
-3.16309000 4.16906000e-03
-3.13309000 4.20087000e-03
-3.10309000 4.23336000e-03
-3.07309000 4.26650000e-03
-3.04309000 4.30031000e-03
-3.01309000 4.33478000e-03
-2.98309000 4.36993000e-03
-2.95309000 4.40579000e-03
-2.92309000 4.44238000e-03
-2.89309000 4.47973000e-03
-2.86309000 4.51787000e-03
-2.82553000 4.56678000e-03
-2.79553000 4.60683000e-03
-2.76553000 4.64781000e-03
-2.73553000 4.68976000e-03
-2.70553000 4.73275000e-03
-2.67553000 4.77685000e-03
-2.64553000 4.82215000e-03
-2.61553000 4.86874000e-03
-2.58553000 4.91675000e-03
-2.55553000 4.96632000e-03
-2.52553000 5.01765000e-03
-2.49553000 5.07097000e-03
-2.46553000 5.12663000e-03
-2.43553000 5.18507000e-03
-2.40553000 5.24694000e-03
-2.37553000 5.31322000e-03
-2.34553000 5.38550000e-03
-2.31553000 5.46642000e-03
-2.28553000 5.56086000e-03
-2.25553000 5.67849000e-03
-2.22553000 5.84026000e-03
-2.19553000 6.09326000e-03
-2.16553000 6.51469000e-03
-2.13553000 6.94804000e-03
-2.09797000 6.73322000e-03
-2.06797000 6.50514000e-03
-2.03797000 6.45833000e-03
-2.00797000 6.52477000e-03
-1.97797000 6.67103000e-03
-1.94797000 6.90092000e-03
-1.91797000 7.25427000e-03
-1.88797000 7.82986000e-03
-1.85797000 8.85108000e-03
-1.82797000 1.07056000e-02
-1.79797000 1.28261000e-02
-1.76797000 1.27433000e-02
-1.73797000 1.25292000e-02
-1.70797000 1.32435000e-02
-1.67797000 1.43236000e-02
-1.64797000 1.42463000e-02
-1.61797000 1.19078000e-02
-1.58797000 1.03058000e-02
-1.55797000 9.77241000e-03
-1.52797000 1.00240000e-02
-1.49797000 1.10611000e-02
-1.46797000 1.20847000e-02
-1.43797000 1.16779000e-02
-1.40797000 1.16177000e-02
-1.37041000 1.21050000e-02
-1.34041000 1.14121000e-02
-1.31041000 1.12287000e-02
-1.28041000 1.17067000e-02
-1.25041000 1.12702000e-02
-1.22041000 1.03559000e-02
-1.19041000 9.81863000e-03
-1.16041000 9.58157000e-03
-1.13041000 9.51339000e-03
-1.10041000 9.54232000e-03
-1.07041000 9.62919000e-03
-1.04041000 9.75507000e-03
-1.01041000 9.91190000e-03
-0.98041200 1.00984000e-02
-0.95041200 1.03205000e-02
-0.92041200 1.05960000e-02
-0.89041200 1.09638000e-02
-0.86041200 1.14280000e-02
-0.83041200 1.17233000e-02
-0.80041200 1.18612000e-02
-0.77041200 1.21481000e-02
-0.74041200 1.25424000e-02
-0.71041200 1.28828000e-02
-0.68041200 1.32084000e-02
-0.64285100 1.36283000e-02
-0.61285100 1.40606000e-02
-0.58285100 1.43964000e-02
-0.55285100 1.45604000e-02
-0.52285100 1.48534000e-02
-0.49285100 1.53388000e-02
-0.46285100 1.60080000e-02
-0.43285100 1.66395000e-02
-0.40285100 1.70774000e-02
-0.37285100 1.76067000e-02
-0.34285100 1.81862000e-02
-0.31285100 1.88763000e-02
-0.28285100 1.97298000e-02
-0.25285100 2.07596000e-02
-0.22285100 2.20070000e-02
-0.19285100 2.35592000e-02
-0.16285100 2.55813000e-02
-0.13285100 2.83844000e-02
-0.10285100 3.25505000e-02
-0.07285120 3.94060000e-02
-0.04285120 5.10984000e-02
-0.01285120 6.62340000e-02
0.01714880 8.38504000e-02
0.04714880 9.05572000e-02
0.08470940 6.57371000e-02
0.11470900 5.24196000e-02
0.14470900 4.68782000e-02
0.17470900 4.52763000e-02
0.20470900 4.55792000e-02
0.23470900 4.69924000e-02
0.26470900 4.94696000e-02
0.29470900 5.29921000e-02
0.32470900 5.70944000e-02
0.35470900 6.13577000e-02
0.38470900 6.67284000e-02
0.41470900 7.36507000e-02
0.44470900 8.25607000e-02
0.47470900 9.45245000e-02
0.50470900 1.11662000e-01
0.53470900 1.38516000e-01
0.56470900 1.81883000e-01
0.59470900 2.25705000e-01
0.62470900 2.27138000e-01
0.65470900 2.27484000e-01
0.68470900 2.51718000e-01
0.71470900 3.02032000e-01
0.74470900 3.93784000e-01
0.77470900 5.48793000e-01
