# E(MeV)  S_GAMTGAMT(Total=K0+2*K1) for Hg211_DDPCX
-6.46334000 6.86936000e-03
-6.43334000 6.90096000e-03
-6.40334000 6.93277000e-03
-6.37334000 6.96479000e-03
-6.34334000 6.99705000e-03
-6.31334000 7.02953000e-03
-6.28334000 7.06223000e-03
-6.25334000 7.09517000e-03
-6.22334000 7.12836000e-03
-6.19334000 7.16176000e-03
-6.16334000 7.19544000e-03
-6.13334000 7.22934000e-03
-6.10334000 7.26351000e-03
-6.07334000 7.29792000e-03
-6.04334000 7.33261000e-03
-6.01334000 7.36755000e-03
-5.98334000 7.40276000e-03
-5.95334000 7.43824000e-03
-5.92334000 7.47400000e-03
-5.89334000 7.51005000e-03
-5.86334000 7.54638000e-03
-5.83334000 7.58299000e-03
-5.80334000 7.61990000e-03
-5.77334000 7.65713000e-03
-5.73578000 7.70414000e-03
-5.70578000 7.74204000e-03
-5.67578000 7.78027000e-03
-5.64578000 7.81881000e-03
-5.61578000 7.85768000e-03
-5.58578000 7.89687000e-03
-5.55578000 7.93640000e-03
-5.52578000 7.97628000e-03
-5.49578000 8.01650000e-03
-5.46578000 8.05708000e-03
-5.43578000 8.09802000e-03
-5.40578000 8.13931000e-03
-5.37578000 8.18097000e-03
-5.34578000 8.22303000e-03
-5.31578000 8.26546000e-03
-5.28578000 8.30828000e-03
-5.25578000 8.35151000e-03
-5.22578000 8.39513000e-03
-5.19578000 8.43917000e-03
-5.16578000 8.48361000e-03
-5.13578000 8.52849000e-03
-5.10578000 8.57380000e-03
-5.07578000 8.61955000e-03
-5.04578000 8.66575000e-03
-5.00821000 8.72424000e-03
-4.97821000 8.77149000e-03
-4.94821000 8.81920000e-03
-4.91821000 8.86740000e-03
-4.88821000 8.91608000e-03
-4.85821000 8.96528000e-03
-4.82821000 9.01499000e-03
-4.79821000 9.06522000e-03
-4.76821000 9.11599000e-03
-4.73821000 9.16731000e-03
-4.70821000 9.21917000e-03
-4.67821000 9.27160000e-03
-4.64821000 9.32462000e-03
-4.61821000 9.37823000e-03
-4.58821000 9.43243000e-03
-4.55821000 9.48727000e-03
-4.52821000 9.54276000e-03
-4.49821000 9.59889000e-03
-4.46821000 9.65570000e-03
-4.43821000 9.71321000e-03
-4.40821000 9.77144000e-03
-4.37821000 9.83044000e-03
-4.34821000 9.89025000e-03
-4.31821000 9.95092000e-03
-4.28065000 1.00282300e-02
-4.25065000 1.00912100e-02
-4.22065000 1.01555400e-02
-4.19065000 1.02215900e-02
-4.16065000 1.02901100e-02
-4.13065000 1.03626800e-02
-4.10065000 1.04426900e-02
-4.07065000 1.05377200e-02
-4.04065000 1.06551200e-02
-4.01065000 1.07497300e-02
-3.98065000 1.07738700e-02
-3.95065000 1.08016500e-02
-3.92065000 1.08511500e-02
-3.89065000 1.09127800e-02
-3.86065000 1.09808300e-02
-3.83065000 1.10528300e-02
-3.80065000 1.11280500e-02
-3.77065000 1.12066200e-02
-3.74065000 1.12894300e-02
-3.71065000 1.13789100e-02
-3.68065000 1.14807400e-02
-3.65065000 1.16061500e-02
-3.62065000 1.17504000e-02
-3.59065000 1.18335600e-02
-3.55309000 1.18678100e-02
-3.52309000 1.19213400e-02
-3.49309000 1.19981600e-02
-3.46309000 1.20920400e-02
-3.43309000 1.21884600e-02
-3.40309000 1.22745800e-02
-3.37309000 1.23552600e-02
-3.34309000 1.24345100e-02
-3.31309000 1.25201200e-02
-3.28309000 1.26101000e-02
-3.25309000 1.27049200e-02
-3.22309000 1.28035800e-02
-3.19309000 1.29052700e-02
-3.16309000 1.30088800e-02
-3.13309000 1.31143500e-02
-3.10309000 1.32222800e-02
-3.07309000 1.33326000e-02
-3.04309000 1.34453100e-02
-3.01309000 1.35604000e-02
-2.98309000 1.36779100e-02
-2.95309000 1.37979700e-02
-2.92309000 1.39206400e-02
-2.89309000 1.40460500e-02
-2.86309000 1.41742900e-02
-2.82553000 1.43391200e-02
-2.79553000 1.44743500e-02
-2.76553000 1.46129700e-02
-2.73553000 1.47552000e-02
-2.70553000 1.49012700e-02
-2.67553000 1.50514900e-02
-2.64553000 1.52062100e-02
-2.61553000 1.53658000e-02
-2.58553000 1.55307700e-02
-2.55553000 1.57017600e-02
-2.52553000 1.58795300e-02
-2.49553000 1.60651300e-02
-2.46553000 1.62599100e-02
-2.43553000 1.64657500e-02
-2.40553000 1.66853600e-02
-2.37553000 1.69227600e-02
-2.34553000 1.71843400e-02
-2.31553000 1.74806200e-02
-2.28553000 1.78304800e-02
-2.25553000 1.82703300e-02
-2.22553000 1.88768800e-02
-2.19553000 1.98206200e-02
-2.16553000 2.14154100e-02
-2.13553000 2.34094600e-02
-2.09797000 2.35655200e-02
-2.06797000 2.36007800e-02
-2.03797000 2.41317300e-02
-2.00797000 2.34197900e-02
-1.97797000 2.28158500e-02
-1.94797000 2.29796800e-02
-1.91797000 2.38141900e-02
-1.88797000 2.53804000e-02
-1.85797000 2.81602600e-02
-1.82797000 3.32826000e-02
-1.79797000 4.06429000e-02
-1.76797000 4.42211000e-02
-1.73797000 4.53268000e-02
-1.70797000 4.64939000e-02
-1.67797000 4.64356000e-02
-1.64797000 4.34703000e-02
-1.61797000 4.00112000e-02
-1.58797000 3.61894000e-02
-1.55797000 3.27256100e-02
-1.52797000 3.11106000e-02
-1.49797000 3.12047000e-02
-1.46797000 3.20416600e-02
-1.43797000 3.16793000e-02
-1.40797000 3.17673000e-02
-1.37041000 3.28716000e-02
-1.34041000 3.26091000e-02
-1.31041000 3.21799000e-02
-1.28041000 3.24991000e-02
-1.25041000 3.23242000e-02
-1.22041000 3.18829000e-02
-1.19041000 3.20034300e-02
-1.16041000 3.26937700e-02
-1.13041000 3.31823900e-02
-1.10041000 3.31451200e-02
-1.07041000 3.32805900e-02
-1.04041000 3.36588700e-02
-1.01041000 3.40769000e-02
-0.98041200 3.46022000e-02
-0.95041200 3.53307000e-02
-0.92041200 3.62602000e-02
-0.89041200 3.74490000e-02
-0.86041200 3.89576000e-02
-0.83041200 4.03583000e-02
-0.80041200 4.14216000e-02
-0.77041200 4.28583000e-02
-0.74041200 4.43394000e-02
-0.71041200 4.57270000e-02
-0.68041200 4.69838000e-02
-0.64285100 4.86455000e-02
-0.61285100 5.07050000e-02
-0.58285100 5.25438000e-02
-0.55285100 5.40002000e-02
-0.52285100 5.55996000e-02
-0.49285100 5.71846000e-02
-0.46285100 5.92232000e-02
-0.43285100 6.17821000e-02
-0.40285100 6.47156000e-02
-0.37285100 6.84459000e-02
-0.34285100 7.33388000e-02
-0.31285100 8.03809000e-02
-0.28285100 9.12906000e-02
-0.25285100 1.04968200e-01
-0.22285100 1.12892200e-01
-0.19285100 1.16071000e-01
-0.16285100 1.23304900e-01
-0.13285100 1.43693200e-01
-0.10285100 1.81898700e-01
-0.07285120 2.17772400e-01
-0.04285120 2.15270200e-01
-0.01285120 2.09182000e-01
0.01714880 2.11411000e-01
0.04714880 2.11595800e-01
0.08470940 1.89238100e-01
0.11470900 1.83540200e-01
0.14470900 1.89130000e-01
0.17470900 1.99484900e-01
0.20470900 2.13868800e-01
0.23470900 2.33244800e-01
0.26470900 2.57763600e-01
0.29470900 2.89490100e-01
0.32470900 3.32538400e-01
0.35470900 3.92323700e-01
0.38470900 4.81076400e-01
0.41470900 5.94140700e-01
0.44470900 7.03284700e-01
0.47470900 7.75262500e-01
0.50470900 8.92530000e-01
0.53470900 1.10721000e+00
0.56470900 1.36554500e+00
0.59470900 1.73235500e+00
0.62470900 2.24605800e+00
0.65470900 2.88318400e+00
0.68470900 3.97339800e+00
0.71470900 6.29525200e+00
0.74470900 1.09997640e+01
0.77470900 1.69420530e+01
