# E(MeV)  S_GAMTGAMT(K=1) for Hg211_DDPCX
-6.46334000 2.30779000e-03
-6.43334000 2.31851000e-03
-6.40334000 2.32930000e-03
-6.37334000 2.34016000e-03
-6.34334000 2.35111000e-03
-6.31334000 2.36213000e-03
-6.28334000 2.37323000e-03
-6.25334000 2.38441000e-03
-6.22334000 2.39568000e-03
-6.19334000 2.40702000e-03
-6.16334000 2.41846000e-03
-6.13334000 2.42997000e-03
-6.10334000 2.44158000e-03
-6.07334000 2.45327000e-03
-6.04334000 2.46506000e-03
-6.01334000 2.47693000e-03
-5.98334000 2.48890000e-03
-5.95334000 2.50096000e-03
-5.92334000 2.51312000e-03
-5.89334000 2.52538000e-03
-5.86334000 2.53774000e-03
-5.83334000 2.55019000e-03
-5.80334000 2.56275000e-03
-5.77334000 2.57542000e-03
-5.73578000 2.59142000e-03
-5.70578000 2.60432000e-03
-5.67578000 2.61734000e-03
-5.64578000 2.63046000e-03
-5.61578000 2.64370000e-03
-5.58578000 2.65705000e-03
-5.55578000 2.67052000e-03
-5.52578000 2.68411000e-03
-5.49578000 2.69782000e-03
-5.46578000 2.71165000e-03
-5.43578000 2.72561000e-03
-5.40578000 2.73969000e-03
-5.37578000 2.75390000e-03
-5.34578000 2.76825000e-03
-5.31578000 2.78273000e-03
-5.28578000 2.79734000e-03
-5.25578000 2.81210000e-03
-5.22578000 2.82699000e-03
-5.19578000 2.84203000e-03
-5.16578000 2.85721000e-03
-5.13578000 2.87254000e-03
-5.10578000 2.88802000e-03
-5.07578000 2.90366000e-03
-5.04578000 2.91945000e-03
-5.00821000 2.93945000e-03
-4.97821000 2.95561000e-03
-4.94821000 2.97193000e-03
-4.91821000 2.98842000e-03
-4.88821000 3.00508000e-03
-4.85821000 3.02192000e-03
-4.82821000 3.03894000e-03
-4.79821000 3.05614000e-03
-4.76821000 3.07353000e-03
-4.73821000 3.09111000e-03
-4.70821000 3.10888000e-03
-4.67821000 3.12685000e-03
-4.64821000 3.14503000e-03
-4.61821000 3.16341000e-03
-4.58821000 3.18200000e-03
-4.55821000 3.20081000e-03
-4.52821000 3.21985000e-03
-4.49821000 3.23911000e-03
-4.46821000 3.25861000e-03
-4.43821000 3.27835000e-03
-4.40821000 3.29834000e-03
-4.37821000 3.31860000e-03
-4.34821000 3.33913000e-03
-4.31821000 3.35996000e-03
-4.28065000 3.38649000e-03
-4.25065000 3.40809000e-03
-4.22065000 3.43013000e-03
-4.19065000 3.45272000e-03
-4.16065000 3.47609000e-03
-4.13065000 3.50071000e-03
-4.10065000 3.52761000e-03
-4.07065000 3.55905000e-03
-4.04065000 3.59666000e-03
-4.01065000 3.62533000e-03
-3.98065000 3.63556000e-03
-3.95065000 3.64877000e-03
-3.92065000 3.66785000e-03
-3.89065000 3.69013000e-03
-3.86065000 3.71416000e-03
-3.83065000 3.73932000e-03
-3.80065000 3.76548000e-03
-3.77065000 3.79274000e-03
-3.74065000 3.82143000e-03
-3.71065000 3.85242000e-03
-3.68065000 3.88774000e-03
-3.65065000 3.93115000e-03
-3.62065000 3.97831000e-03
-3.59065000 4.00022000e-03
-3.55309000 4.01547000e-03
-3.52309000 4.03780000e-03
-3.49309000 4.06656000e-03
-3.46309000 4.10076000e-03
-3.43309000 4.13358000e-03
-3.40309000 4.15886000e-03
-3.37309000 4.18566000e-03
-3.34309000 4.21619000e-03
-3.31309000 4.24796000e-03
-3.28309000 4.27998000e-03
-3.25309000 4.31334000e-03
-3.22309000 4.34798000e-03
-3.19309000 4.38366000e-03
-3.16309000 4.41991000e-03
-3.13309000 4.45674000e-03
-3.10309000 4.49446000e-03
-3.07309000 4.53305000e-03
-3.04309000 4.57250000e-03
-3.01309000 4.61281000e-03
-2.98309000 4.65399000e-03
-2.95309000 4.69609000e-03
-2.92309000 4.73913000e-03
-2.89309000 4.78316000e-03
-2.86309000 4.82821000e-03
-2.82553000 4.88617000e-03
-2.79553000 4.93376000e-03
-2.76553000 4.98258000e-03
-2.73553000 5.03272000e-03
-2.70553000 5.08426000e-03
-2.67553000 5.13732000e-03
-2.64553000 5.19203000e-03
-2.61553000 5.24853000e-03
-2.58553000 5.30701000e-03
-2.55553000 5.36772000e-03
-2.52553000 5.43094000e-03
-2.49553000 5.49708000e-03
-2.46553000 5.56664000e-03
-2.43553000 5.64034000e-03
-2.40553000 5.71921000e-03
-2.37553000 5.80477000e-03
-2.34553000 5.89942000e-03
-2.31553000 6.00710000e-03
-2.28553000 6.13481000e-03
-2.25553000 6.29592000e-03
-2.22553000 6.51831000e-03
-2.19553000 6.86368000e-03
-2.16553000 7.45036000e-03
-2.13553000 8.23071000e-03
-2.09797000 8.41615000e-03
-2.06797000 8.54782000e-03
-2.03797000 8.83670000e-03
-2.00797000 8.44751000e-03
-1.97797000 8.07241000e-03
-1.94797000 8.03938000e-03
-1.91797000 8.27996000e-03
-1.88797000 8.77527000e-03
-1.85797000 9.65459000e-03
-1.82797000 1.12885000e-02
-1.79797000 1.39084000e-02
-1.76797000 1.57389000e-02
-1.73797000 1.63988000e-02
-1.70797000 1.66252000e-02
-1.67797000 1.60560000e-02
-1.64797000 1.46120000e-02
-1.61797000 1.40517000e-02
-1.58797000 1.29418000e-02
-1.55797000 1.14766000e-02
-1.52797000 1.05433000e-02
-1.49797000 1.00718000e-02
-1.46797000 9.97848000e-03
-1.43797000 1.00007000e-02
-1.40797000 1.00748000e-02
-1.37041000 1.03833000e-02
-1.34041000 1.05985000e-02
-1.31041000 1.04756000e-02
-1.28041000 1.03962000e-02
-1.25041000 1.05270000e-02
-1.22041000 1.07635000e-02
-1.19041000 1.10924000e-02
-1.16041000 1.15561000e-02
-1.13041000 1.18345000e-02
-1.10041000 1.18014000e-02
-1.07041000 1.18257000e-02
-1.04041000 1.19519000e-02
-1.01041000 1.20825000e-02
-0.98041200 1.22519000e-02
-0.95041200 1.25051000e-02
-0.92041200 1.28321000e-02
-0.89041200 1.32426000e-02
-0.86041200 1.37648000e-02
-0.83041200 1.43175000e-02
-0.80041200 1.47802000e-02
-0.77041200 1.53551000e-02
-0.74041200 1.58985000e-02
-0.71041200 1.64221000e-02
-0.68041200 1.68877000e-02
-0.64285100 1.75086000e-02
-0.61285100 1.83222000e-02
-0.58285100 1.90737000e-02
-0.55285100 1.97199000e-02
-0.52285100 2.03731000e-02
-0.49285100 2.09229000e-02
-0.46285100 2.16076000e-02
-0.43285100 2.25713000e-02
-0.40285100 2.38191000e-02
-0.37285100 2.54196000e-02
-0.34285100 2.75763000e-02
-0.31285100 3.07523000e-02
-0.28285100 3.57804000e-02
-0.25285100 4.21043000e-02
-0.22285100 4.54426000e-02
-0.19285100 4.62559000e-02
-0.16285100 4.88618000e-02
-0.13285100 5.76544000e-02
-0.10285100 7.46741000e-02
-0.07285120 8.91832000e-02
-0.04285120 8.20859000e-02
-0.01285120 7.14740000e-02
0.01714880 6.37803000e-02
0.04714880 6.05193000e-02
0.08470940 6.17505000e-02
0.11470900 6.55603000e-02
0.14470900 7.11259000e-02
0.17470900 7.71043000e-02
0.20470900 8.41448000e-02
0.23470900 9.31262000e-02
0.26470900 1.04147000e-01
0.29470900 1.18249000e-01
0.32470900 1.37722000e-01
0.35470900 1.65483000e-01
0.38470900 2.07174000e-01
0.41470900 2.60245000e-01
0.44470900 3.10362000e-01
0.47470900 3.40369000e-01
0.50470900 3.90434000e-01
0.53470900 4.84347000e-01
0.56470900 5.91831000e-01
0.59470900 7.53325000e-01
0.62470900 1.00946000e+00
0.65470900 1.32785000e+00
0.68470900 1.86084000e+00
0.71470900 2.99661000e+00
0.74470900 5.30299000e+00
0.77470900 8.19663000e+00
