# E(MeV)  S_GAMTGAMT(K=0) for Ho185_DDPCX
-9.08701000 2.97739000e-03
-9.05701000 2.98643000e-03
-9.02701000 2.99875000e-03
-8.99701000 3.01276000e-03
-8.96701000 3.02774000e-03
-8.93701000 3.04332000e-03
-8.90701000 3.05933000e-03
-8.87701000 3.07561000e-03
-8.84701000 3.09209000e-03
-8.81701000 3.10864000e-03
-8.78701000 3.12509000e-03
-8.75701000 3.14114000e-03
-8.72701000 3.15613000e-03
-8.69701000 3.16855000e-03
-8.66701000 3.17595000e-03
-8.63701000 3.18329000e-03
-8.60701000 3.20940000e-03
-8.57701000 3.24080000e-03
-8.54701000 3.26693000e-03
-8.51701000 3.28987000e-03
-8.48701000 3.31145000e-03
-8.45701000 3.33249000e-03
-8.42701000 3.35338000e-03
-8.39701000 3.37428000e-03
-8.36701000 3.39530000e-03
-8.33701000 3.41650000e-03
-8.30701000 3.43790000e-03
-8.27701000 3.45954000e-03
-8.24701000 3.48143000e-03
-8.21701000 3.50358000e-03
-8.18701000 3.52600000e-03
-8.15701000 3.54872000e-03
-8.09708000 3.59499000e-03
-8.06708000 3.61863000e-03
-8.03708000 3.64258000e-03
-8.00708000 3.66688000e-03
-7.97708000 3.69151000e-03
-7.94708000 3.71650000e-03
-7.91708000 3.74185000e-03
-7.88708000 3.76758000e-03
-7.85708000 3.79369000e-03
-7.82708000 3.82020000e-03
-7.79708000 3.84711000e-03
-7.76708000 3.87444000e-03
-7.73708000 3.90220000e-03
-7.70708000 3.93041000e-03
-7.67708000 3.95907000e-03
-7.64708000 3.98821000e-03
-7.61708000 4.01783000e-03
-7.58708000 4.04796000e-03
-7.55708000 4.07860000e-03
-7.52708000 4.10978000e-03
-7.49708000 4.14151000e-03
-7.46708000 4.17381000e-03
-7.43708000 4.20671000e-03
-7.40708000 4.24022000e-03
-7.37708000 4.27436000e-03
-7.34708000 4.30917000e-03
-7.31708000 4.34466000e-03
-7.28708000 4.38086000e-03
-7.25708000 4.41780000e-03
-7.22708000 4.45550000e-03
-7.19708000 4.49401000e-03
-7.16708000 4.53336000e-03
-7.10716000 4.61461000e-03
-7.07716000 4.65670000e-03
-7.04716000 4.69980000e-03
-7.01716000 4.74397000e-03
-6.98716000 4.78928000e-03
-6.95716000 4.83581000e-03
-6.92716000 4.88370000e-03
-6.89716000 4.93315000e-03
-6.86716000 4.98451000e-03
-6.83716000 5.03855000e-03
-6.80716000 5.09650000e-03
-6.77716000 5.15632000e-03
-6.74716000 5.20929000e-03
-6.71716000 5.26147000e-03
-6.68716000 5.31813000e-03
-6.65716000 5.37849000e-03
-6.62716000 5.44188000e-03
-6.59716000 5.50814000e-03
-6.56716000 5.57746000e-03
-6.53716000 5.65028000e-03
-6.50716000 5.72759000e-03
-6.47716000 5.81113000e-03
-6.44716000 5.90019000e-03
-6.41716000 5.98329000e-03
-6.38716000 6.06448000e-03
-6.35716000 6.15366000e-03
-6.32716000 6.25078000e-03
-6.29716000 6.35524000e-03
-6.26716000 6.46731000e-03
-6.23716000 6.58783000e-03
-6.20716000 6.71803000e-03
-6.17716000 6.85962000e-03
-6.11723000 7.18627000e-03
-6.08723000 7.37877000e-03
-6.05723000 7.59761000e-03
-6.02723000 7.85082000e-03
-5.99723000 8.15019000e-03
-5.96723000 8.51368000e-03
-5.93723000 8.96976000e-03
-5.90723000 9.56586000e-03
-5.87723000 1.03857000e-02
-5.84723000 1.15871000e-02
-5.81723000 1.34925000e-02
-5.78723000 1.68099000e-02
-5.75723000 2.31150000e-02
-5.72723000 3.47941000e-02
-5.69723000 4.56967000e-02
-5.66723000 3.79237000e-02
-5.63723000 2.68849000e-02
-5.60723000 2.20267000e-02
-5.57723000 2.18886000e-02
-5.54723000 2.55694000e-02
-5.51723000 2.79012000e-02
-5.48723000 2.31516000e-02
-5.45723000 1.88746000e-02
-5.42723000 1.68937000e-02
-5.39723000 1.63645000e-02
-5.36723000 1.68947000e-02
-5.33723000 1.86143000e-02
-5.30723000 2.23099000e-02
-5.27723000 2.86235000e-02
-5.24723000 3.14148000e-02
-5.21723000 2.66116000e-02
-5.18723000 2.30941000e-02
-5.12730000 2.34088000e-02
-5.09730000 2.64508000e-02
-5.06730000 3.00918000e-02
-5.03730000 3.01118000e-02
-5.00730000 2.95557000e-02
-4.97730000 3.09197000e-02
-4.94730000 3.40348000e-02
-4.91730000 3.90259000e-02
-4.88730000 4.67545000e-02
-4.85730000 5.92916000e-02
-4.82730000 8.02430000e-02
-4.79730000 1.09277000e-01
-4.76730000 1.40733000e-01
-4.73730000 1.70397000e-01
-4.70730000 1.72610000e-01
-4.67730000 1.89387000e-01
-4.64730000 2.54385000e-01
-4.61730000 3.41970000e-01
-4.58730000 3.95599000e-01
-4.55730000 5.10379000e-01
-4.52730000 6.48971000e-01
-4.49730000 7.93461000e-01
-4.46730000 1.08169000e+00
-4.43730000 1.02447000e+00
-4.40730000 6.22490000e-01
-4.37730000 3.58463000e-01
-4.34730000 2.24433000e-01
-4.31730000 1.53137000e-01
-4.28730000 1.11866000e-01
-4.25730000 8.61290000e-02
-4.22730000 6.90958000e-02
-4.19730000 5.72826000e-02
-4.13737000 4.24926000e-02
-4.10737000 3.77107000e-02
-4.07737000 3.40208000e-02
-4.04737000 3.11439000e-02
-4.01737000 2.89044000e-02
-3.98737000 2.72121000e-02
-3.95737000 2.60113000e-02
-3.92737000 2.49242000e-02
-3.89737000 2.36300000e-02
-3.86737000 2.25659000e-02
-3.83737000 2.17904000e-02
-3.80737000 2.12210000e-02
-3.77737000 2.08083000e-02
-3.74737000 2.05288000e-02
-3.71737000 2.03737000e-02
-3.68737000 2.03464000e-02
-3.65737000 2.04648000e-02
-3.62737000 2.07695000e-02
-3.59737000 2.13450000e-02
-3.56737000 2.23694000e-02
-3.53737000 2.42384000e-02
-3.50737000 2.78476000e-02
-3.47737000 3.45984000e-02
-3.44737000 4.11097000e-02
-3.41737000 3.72493000e-02
-3.38737000 3.17494000e-02
-3.35737000 3.03055000e-02
-3.32737000 3.27303000e-02
-3.29737000 3.95132000e-02
-3.26737000 4.52263000e-02
-3.23737000 3.91460000e-02
-3.20737000 3.19978000e-02
-3.14744000 2.68910000e-02
-3.11744000 2.63552000e-02
-3.08744000 2.63534000e-02
-3.05744000 2.66810000e-02
-3.02744000 2.72453000e-02
-2.99744000 2.80071000e-02
-2.96744000 2.89574000e-02
-2.93744000 3.01104000e-02
-2.90744000 3.15059000e-02
-2.87744000 3.32269000e-02
-2.84744000 3.54426000e-02
-2.81744000 3.84823000e-02
-2.78744000 4.25245000e-02
-2.75744000 4.62590000e-02
-2.72744000 4.95770000e-02
-2.69744000 5.20433000e-02
-2.66744000 5.50483000e-02
-2.63744000 6.02346000e-02
-2.60744000 6.79574000e-02
-2.57744000 7.90389000e-02
-2.54744000 9.52998000e-02
-2.51744000 1.20312000e-01
-2.48744000 1.60847000e-01
-2.45744000 2.31190000e-01
-2.42744000 3.62536000e-01
-2.39744000 6.16363000e-01
-2.36744000 9.27872000e-01
-2.33744000 8.11416000e-01
-2.30744000 4.89160000e-01
-2.27744000 3.00974000e-01
-2.24744000 2.09102000e-01
-2.21744000 1.63133000e-01
-2.15751000 1.31832000e-01
-2.12751000 1.34957000e-01
-2.09751000 1.50154000e-01
-2.06751000 1.77844000e-01
-2.03751000 1.83605000e-01
-2.00751000 1.59540000e-01
-1.97751000 1.45504000e-01
-1.94751000 1.41877000e-01
-1.91751000 1.45746000e-01
-1.88751000 1.55674000e-01
-1.85751000 1.71108000e-01
-1.82751000 1.92772000e-01
-1.79751000 2.22695000e-01
-1.76751000 2.64801000e-01
-1.73751000 3.26542000e-01
-1.70751000 4.22875000e-01
-1.67751000 5.86037000e-01
-1.64751000 8.86968000e-01
-1.61751000 1.43209000e+00
-1.58751000 1.94400000e+00
-1.55751000 1.71037000e+00
-1.52751000 1.44453000e+00
-1.49751000 1.56675000e+00
-1.46751000 2.01328000e+00
-1.43751000 2.86393000e+00
-1.40751000 3.76098000e+00
-1.37751000 3.14935000e+00
-1.34751000 2.21127000e+00
-1.31751000 1.86203000e+00
-1.28751000 1.99827000e+00
-1.25751000 2.64624000e+00
-1.22751000 4.15371000e+00
-1.16759000 1.03295000e+01
-1.13759000 8.28874000e+00
-1.10759000 4.72730000e+00
-1.07759000 2.72919000e+00
-1.04759000 1.72233000e+00
-1.01759000 1.17934000e+00
-0.98758600 8.63255000e-01
-0.95758600 6.68891000e-01
-0.92758600 5.38041000e-01
-0.89758600 4.37993000e-01
-0.86758600 3.62787000e-01
-0.83758600 3.07655000e-01
-0.80758600 2.67328000e-01
-0.77758600 2.37436000e-01
-0.74758600 2.14949000e-01
-0.71758600 1.97526000e-01
-0.68758600 1.83623000e-01
-0.65758600 1.73249000e-01
-0.62758600 1.66157000e-01
-0.59758600 1.62648000e-01
-0.56758600 1.62827000e-01
-0.53758600 1.67039000e-01
-0.50758600 1.76137000e-01
-0.47758600 1.91708000e-01
-0.44758600 2.16470000e-01
-0.41758600 2.55123000e-01
-0.38758600 3.16890000e-01
-0.35758600 4.19923000e-01
-0.32758600 6.02026000e-01
-0.29758600 9.49433000e-01
-0.26758600 1.64395000e+00
-0.23758600 2.73640000e+00
-0.17765800 1.86601000e+00
-0.14765800 1.10459000e+00
-0.11765800 7.12567000e-01
-0.08765820 4.76379000e-01
-0.05765820 3.36001000e-01
-0.02765820 2.52040000e-01
0.00234179 1.99059000e-01
0.03234180 1.63696000e-01
0.06234180 1.38932000e-01
0.09234180 1.21077000e-01
0.12234200 1.07927000e-01
0.15234200 9.81556000e-02
0.18234200 9.16746000e-02
0.21234200 8.82070000e-02
0.24234200 8.68994000e-02
0.27234200 8.42959000e-02
0.30234200 7.69779000e-02
0.33234200 7.10508000e-02
0.36234200 6.78770000e-02
0.39234200 6.65146000e-02
0.42234200 6.66578000e-02
0.45234200 6.88900000e-02
0.48234200 7.44319000e-02
0.51234200 8.39747000e-02
0.54234200 9.09956000e-02
0.57234200 9.70592000e-02
0.60234200 1.14759000e-01
0.63234200 1.36888000e-01
0.66234200 1.36766000e-01
0.69234200 1.37808000e-01
0.72234200 1.62492000e-01
0.75234200 2.23077000e-01
