# E(MeV)  S_GAMTGAMT(K=1) for Ho185_DDPCX
-9.08701000 3.02941000e-03
-9.05701000 2.98127000e-03
-9.02701000 2.90352000e-03
-8.99701000 2.86612000e-03
-8.96701000 2.85374000e-03
-8.93701000 2.85306000e-03
-8.90701000 2.85796000e-03
-8.87701000 2.86545000e-03
-8.84701000 2.87370000e-03
-8.81701000 2.88085000e-03
-8.78701000 2.88398000e-03
-8.75701000 2.87960000e-03
-8.72701000 2.87876000e-03
-8.69701000 2.89588000e-03
-8.66701000 2.90630000e-03
-8.63701000 2.92505000e-03
-8.60701000 2.96276000e-03
-8.57701000 2.99445000e-03
-8.54701000 3.01886000e-03
-8.51701000 3.03976000e-03
-8.48701000 3.05909000e-03
-8.45701000 3.07772000e-03
-8.42701000 3.09606000e-03
-8.39701000 3.11431000e-03
-8.36701000 3.13260000e-03
-8.33701000 3.15099000e-03
-8.30701000 3.16953000e-03
-8.27701000 3.18825000e-03
-8.24701000 3.20717000e-03
-8.21701000 3.22631000e-03
-8.18701000 3.24568000e-03
-8.15701000 3.26530000e-03
-8.09708000 3.30526000e-03
-8.06708000 3.32568000e-03
-8.03708000 3.34638000e-03
-8.00708000 3.36737000e-03
-7.97708000 3.38867000e-03
-7.94708000 3.41029000e-03
-7.91708000 3.43223000e-03
-7.88708000 3.45451000e-03
-7.85708000 3.47714000e-03
-7.82708000 3.50013000e-03
-7.79708000 3.52349000e-03
-7.76708000 3.54724000e-03
-7.73708000 3.57139000e-03
-7.70708000 3.59596000e-03
-7.67708000 3.62095000e-03
-7.64708000 3.64639000e-03
-7.61708000 3.67229000e-03
-7.58708000 3.69868000e-03
-7.55708000 3.72557000e-03
-7.52708000 3.75298000e-03
-7.49708000 3.78093000e-03
-7.46708000 3.80946000e-03
-7.43708000 3.83859000e-03
-7.40708000 3.86833000e-03
-7.37708000 3.89874000e-03
-7.34708000 3.92983000e-03
-7.31708000 3.96165000e-03
-7.28708000 3.99423000e-03
-7.25708000 4.02763000e-03
-7.22708000 4.06188000e-03
-7.19708000 4.09705000e-03
-7.16708000 4.13320000e-03
-7.10716000 4.20865000e-03
-7.07716000 4.24823000e-03
-7.04716000 4.28917000e-03
-7.01716000 4.33164000e-03
-6.98716000 4.37585000e-03
-6.95716000 4.42208000e-03
-6.92716000 4.47077000e-03
-6.89716000 4.52259000e-03
-6.86716000 4.57869000e-03
-6.83716000 4.64128000e-03
-6.80716000 4.71474000e-03
-6.77716000 4.80577000e-03
-6.74716000 4.90881000e-03
-6.71716000 5.02187000e-03
-6.68716000 5.20511000e-03
-6.65716000 5.45052000e-03
-6.62716000 5.48424000e-03
-6.59716000 5.36438000e-03
-6.56716000 5.32182000e-03
-6.53716000 5.34671000e-03
-6.50716000 5.41031000e-03
-6.47716000 5.50375000e-03
-6.44716000 5.63228000e-03
-6.41716000 5.79205000e-03
-6.38716000 5.89742000e-03
-6.35716000 5.95553000e-03
-6.32716000 6.04901000e-03
-6.29716000 6.17925000e-03
-6.26716000 6.33901000e-03
-6.23716000 6.52801000e-03
-6.20716000 6.75096000e-03
-6.17716000 7.01617000e-03
-6.11723000 7.72682000e-03
-6.08723000 8.23078000e-03
-6.05723000 8.90240000e-03
-6.02723000 9.84227000e-03
-5.99723000 1.12420000e-02
-5.96723000 1.34957000e-02
-5.93723000 1.74780000e-02
-5.90723000 2.51496000e-02
-5.87723000 3.91622000e-02
-5.84723000 4.99719000e-02
-5.81723000 3.91064000e-02
-5.78723000 2.66951000e-02
-5.75723000 2.07801000e-02
-5.72723000 1.84853000e-02
-5.69723000 1.81494000e-02
-5.66723000 1.94836000e-02
-5.63723000 2.27421000e-02
-5.60723000 2.91512000e-02
-5.57723000 4.10190000e-02
-5.54723000 5.97468000e-02
-5.51723000 6.27678000e-02
-5.48723000 4.73735000e-02
-5.45723000 3.66536000e-02
-5.42723000 2.99052000e-02
-5.39723000 2.71359000e-02
-5.36723000 2.75334000e-02
-5.33723000 3.05805000e-02
-5.30723000 3.68870000e-02
-5.27723000 4.86576000e-02
-5.24723000 7.13010000e-02
-5.21723000 1.15353000e-01
-5.18723000 1.76038000e-01
-5.12730000 1.33890000e-01
-5.09730000 1.09839000e-01
-5.06730000 1.05784000e-01
-5.03730000 1.29141000e-01
-5.00730000 1.65919000e-01
-4.97730000 1.81470000e-01
-4.94730000 1.53417000e-01
-4.91730000 1.13861000e-01
-4.88730000 1.01951000e-01
-4.85730000 1.17156000e-01
-4.82730000 1.63094000e-01
-4.79730000 2.06464000e-01
-4.76730000 1.64542000e-01
-4.73730000 1.05890000e-01
-4.70730000 7.39979000e-02
-4.67730000 6.19911000e-02
-4.64730000 6.05471000e-02
-4.61730000 5.76494000e-02
-4.58730000 5.62874000e-02
-4.55730000 6.58658000e-02
-4.52730000 9.33471000e-02
-4.49730000 1.41424000e-01
-4.46730000 1.55207000e-01
-4.43730000 1.06398000e-01
-4.40730000 6.81755000e-02
-4.37730000 4.95229000e-02
-4.34730000 4.12022000e-02
-4.31730000 3.85766000e-02
-4.28730000 4.02880000e-02
-4.25730000 4.71628000e-02
-4.22730000 6.28775000e-02
-4.19730000 9.59355000e-02
-4.13737000 1.59945000e-01
-4.10737000 1.16996000e-01
-4.07737000 9.68865000e-02
-4.04737000 1.03971000e-01
-4.01737000 9.62965000e-02
-3.98737000 6.54040000e-02
-3.95737000 4.45445000e-02
-3.92737000 3.36949000e-02
-3.89737000 2.74749000e-02
-3.86737000 2.36282000e-02
-3.83737000 2.12166000e-02
-3.80737000 1.96513000e-02
-3.77737000 1.86108000e-02
-3.74737000 1.79195000e-02
-3.71737000 1.74767000e-02
-3.68737000 1.72230000e-02
-3.65737000 1.71241000e-02
-3.62737000 1.71637000e-02
-3.59737000 1.73420000e-02
-3.56737000 1.76810000e-02
-3.53737000 1.82419000e-02
-3.50737000 1.91684000e-02
-3.47737000 2.07583000e-02
-3.44737000 2.31268000e-02
-3.41737000 2.44679000e-02
-3.38737000 2.49555000e-02
-3.35737000 2.65014000e-02
-3.32737000 2.68998000e-02
-3.29737000 2.70982000e-02
-3.26737000 2.83514000e-02
-3.23737000 2.90829000e-02
-3.20737000 3.04012000e-02
-3.14744000 3.46924000e-02
-3.11744000 3.87516000e-02
-3.08744000 4.53392000e-02
-3.05744000 5.60360000e-02
-3.02744000 7.43870000e-02
-2.99744000 1.08558000e-01
-2.96744000 1.76096000e-01
-2.93744000 2.86623000e-01
-2.90744000 3.16490000e-01
-2.87744000 2.12351000e-01
-2.84744000 1.33708000e-01
-2.81744000 9.62509000e-02
-2.78744000 8.04833000e-02
-2.75744000 7.74317000e-02
-2.72744000 8.57904000e-02
-2.69744000 1.06242000e-01
-2.66744000 1.18093000e-01
-2.63744000 1.02603000e-01
-2.60744000 9.37332000e-02
-2.57744000 1.01172000e-01
-2.54744000 1.18536000e-01
-2.51744000 1.14121000e-01
-2.48744000 1.00353000e-01
-2.45744000 1.00573000e-01
-2.42744000 1.17182000e-01
-2.39744000 1.51197000e-01
-2.36744000 1.68499000e-01
-2.33744000 1.44473000e-01
-2.30744000 1.27723000e-01
-2.27744000 1.26561000e-01
-2.24744000 1.35690000e-01
-2.21744000 1.53184000e-01
-2.15751000 2.19979000e-01
-2.12751000 2.80965000e-01
-2.09751000 3.77948000e-01
-2.06751000 5.34558000e-01
-2.03751000 8.07435000e-01
-2.00751000 1.34021000e+00
-1.97751000 2.15871000e+00
-1.94751000 2.31131000e+00
-1.91751000 1.74164000e+00
-1.88751000 1.56160000e+00
-1.85751000 1.85981000e+00
-1.82751000 2.41628000e+00
-1.79751000 3.05000000e+00
-1.76751000 2.50299000e+00
-1.73751000 1.49664000e+00
-1.70751000 9.22677000e-01
-1.67751000 6.42936000e-01
-1.64751000 5.10439000e-01
-1.61751000 4.65076000e-01
-1.58751000 4.96163000e-01
-1.55751000 6.30160000e-01
-1.52751000 9.37307000e-01
-1.49751000 1.38226000e+00
-1.46751000 1.36242000e+00
-1.43751000 8.77848000e-01
-1.40751000 5.35029000e-01
-1.37751000 3.60302000e-01
-1.34751000 2.70368000e-01
-1.31751000 2.22445000e-01
-1.28751000 1.98542000e-01
-1.25751000 1.91553000e-01
-1.22751000 1.98813000e-01
-1.16759000 2.75815000e-01
-1.13759000 3.83361000e-01
-1.10759000 6.07393000e-01
-1.07759000 9.76343000e-01
-1.04759000 1.07536000e+00
-1.01759000 7.46257000e-01
-0.98758600 5.05076000e-01
-0.95758600 4.02190000e-01
-0.92758600 3.94986000e-01
-0.89758600 4.20301000e-01
-0.86758600 3.71372000e-01
-0.83758600 2.75525000e-01
-0.80758600 2.11987000e-01
-0.77758600 1.82594000e-01
-0.74758600 1.78327000e-01
-0.71758600 1.96412000e-01
-0.68758600 2.44195000e-01
-0.65758600 3.42155000e-01
-0.62758600 5.32676000e-01
-0.59758600 8.32109000e-01
-0.56758600 9.72733000e-01
-0.53758600 6.91626000e-01
-0.50758600 4.26312000e-01
-0.47758600 2.93757000e-01
-0.44758600 2.29080000e-01
-0.41758600 2.03467000e-01
-0.38758600 2.09725000e-01
-0.35758600 2.52409000e-01
-0.32758600 3.40939000e-01
-0.29758600 4.69954000e-01
-0.26758600 6.60059000e-01
-0.23758600 6.84419000e-01
-0.17765800 3.05000000e-01
-0.14765800 2.37046000e-01
-0.11765800 2.23076000e-01
-0.08765820 2.52669000e-01
-0.05765820 3.23437000e-01
-0.02765820 4.26022000e-01
0.00234179 5.49632000e-01
0.03234180 5.47886000e-01
0.06234180 4.53520000e-01
0.09234180 3.47786000e-01
0.12234200 2.92629000e-01
0.15234200 3.10515000e-01
0.18234200 3.90696000e-01
0.21234200 4.97285000e-01
0.24234200 6.15533000e-01
0.27234200 6.27361000e-01
0.30234200 4.58701000e-01
0.33234200 3.05866000e-01
0.36234200 2.34116000e-01
0.39234200 2.18230000e-01
0.42234200 2.47675000e-01
0.45234200 3.36355000e-01
0.48234200 4.76767000e-01
0.51234200 4.60036000e-01
0.54234200 3.09780000e-01
0.57234200 2.22245000e-01
0.60234200 2.00309000e-01
0.63234200 2.23058000e-01
0.66234200 2.28024000e-01
0.69234200 1.85237000e-01
0.72234200 1.60216000e-01
0.75234200 1.43266000e-01
