# E(MeV)  S_GAMTGAMT(Total=K0+2*K1) for Hs335_DDPCX
-11.56800000 1.04456000e-02
-11.53800000 1.03269400e-02
-11.50800000 1.03057700e-02
-11.47800000 1.03406700e-02
-11.44800000 1.04172800e-02
-11.41800000 1.05419300e-02
-11.38800000 1.07440400e-02
-11.35800000 1.10977300e-02
-11.32800000 1.17716400e-02
-11.29800000 1.29565800e-02
-11.26800000 1.36781300e-02
-11.23800000 1.26788400e-02
-11.20800000 1.17021500e-02
-11.17800000 1.12140800e-02
-11.14800000 1.09857000e-02
-11.11800000 1.08784700e-02
-11.08800000 1.08315000e-02
-11.05800000 1.08172000e-02
-11.02800000 1.08221700e-02
-10.99800000 1.08395300e-02
-10.96800000 1.08657200e-02
-10.93800000 1.08993500e-02
-10.90800000 1.09411000e-02
-10.87800000 1.09943200e-02
-10.84800000 1.10561000e-02
-10.81800000 1.10931900e-02
-10.78800000 1.11138200e-02
-10.75800000 1.11452700e-02
-10.72800000 1.11860400e-02
-10.69800000 1.12326200e-02
-10.66800000 1.12835800e-02
-10.63800000 1.13387700e-02
-10.60800000 1.13988100e-02
-10.57800000 1.14650800e-02
-10.54800000 1.15401900e-02
-10.51800000 1.16289200e-02
-10.48800000 1.17406000e-02
-10.45800000 1.18949400e-02
-10.42800000 1.21362400e-02
-10.39800000 1.25557800e-02
-10.36800000 1.31662300e-02
-10.32990000 1.31872100e-02
-10.29990000 1.27796900e-02
-10.26990000 1.26103600e-02
-10.23990000 1.26312700e-02
-10.20990000 1.27896000e-02
-10.17990000 1.31060200e-02
-10.14990000 1.36924500e-02
-10.11990000 1.48078200e-02
-10.08990000 1.65640700e-02
-10.05990000 1.74173300e-02
-10.02990000 1.66577800e-02
-9.99995000 1.56132400e-02
-9.96995000 1.50726800e-02
-9.93995000 1.47322900e-02
-9.90995000 1.48149100e-02
-9.87995000 1.54960800e-02
-9.84995000 1.67414700e-02
-9.81995000 1.75539800e-02
-9.78995000 1.84199700e-02
-9.75995000 2.10854700e-02
-9.72995000 2.42057900e-02
-9.69995000 2.35620700e-02
-9.66995000 2.27472300e-02
-9.63995000 2.11291000e-02
-9.60995000 1.82261700e-02
-9.57995000 1.64004700e-02
-9.54995000 1.55101600e-02
-9.51995000 1.51014700e-02
-9.48995000 1.49475800e-02
-9.45995000 1.49377300e-02
-9.42995000 1.50483000e-02
-9.39995000 1.52900100e-02
-9.36995000 1.57025600e-02
-9.33995000 1.63925800e-02
-9.30995000 1.76094700e-02
-9.27995000 1.98096800e-02
-9.24995000 2.28441300e-02
-9.21995000 2.46097400e-02
-9.18995000 2.31915600e-02
-9.15995000 2.16927200e-02
-9.12995000 2.22009500e-02
-9.09192000 2.46130500e-02
-9.06192000 2.50625100e-02
-9.03192000 2.61986400e-02
-9.00192000 3.03925200e-02
-8.97192000 3.95061000e-02
-8.94192000 5.23109000e-02
-8.91192000 5.60080000e-02
-8.88192000 5.93718000e-02
-8.85192000 7.19234000e-02
-8.82192000 7.29777000e-02
-8.79192000 6.52340700e-02
-8.76192000 6.86660000e-02
-8.73192000 6.37300300e-02
-8.70192000 4.61587000e-02
-8.67192000 3.47821700e-02
-8.64192000 2.95621500e-02
-8.61192000 2.79927500e-02
-8.58192000 2.88185400e-02
-8.55192000 3.04497700e-02
-8.52192000 3.17135800e-02
-8.49192000 3.27709300e-02
-8.46192000 3.82649300e-02
-8.43192000 4.72994000e-02
-8.40192000 4.62489000e-02
-8.37192000 3.78822300e-02
-8.34192000 3.43498600e-02
-8.31192000 3.36043000e-02
-8.28192000 3.17165200e-02
-8.25192000 2.77176200e-02
-8.22192000 2.55186600e-02
-8.19192000 2.57603400e-02
-8.16192000 2.81537400e-02
-8.13192000 3.17211600e-02
-8.10192000 3.23219900e-02
-8.07192000 2.97891000e-02
-8.04192000 2.86608100e-02
-8.01192000 2.70007100e-02
-7.98192000 2.52688600e-02
-7.95192000 2.53100200e-02
-7.92192000 2.74241000e-02
-7.89192000 3.26567400e-02
-7.85390000 4.41460400e-02
-7.82390000 4.47515800e-02
-7.79390000 3.90165400e-02
-7.76390000 3.57429000e-02
-7.73390000 3.46139400e-02
-7.70390000 3.49521000e-02
-7.67390000 3.68420000e-02
-7.64390000 4.20727000e-02
-7.61390000 5.09337000e-02
-7.58390000 6.40001000e-02
-7.55390000 7.31036000e-02
-7.52390000 6.11536000e-02
-7.49390000 4.60303000e-02
-7.46390000 3.91338000e-02
-7.43390000 3.80530000e-02
-7.40390000 3.95783000e-02
-7.37390000 4.24383000e-02
-7.34390000 4.93206000e-02
-7.31390000 6.50209000e-02
-7.28390000 9.52136000e-02
-7.25390000 1.18465400e-01
-7.22390000 9.55912000e-02
-7.19390000 6.67005000e-02
-7.16390000 5.04201000e-02
-7.13390000 4.20286000e-02
-7.10390000 3.95825000e-02
-7.07390000 4.03893000e-02
-7.04390000 3.96117000e-02
-7.01390000 3.79324000e-02
-6.98390000 3.94889000e-02
-6.95390000 4.70743000e-02
-6.92390000 6.08064000e-02
-6.89390000 6.57482000e-02
-6.86390000 5.50987000e-02
-6.83390000 4.26415000e-02
-6.80390000 3.47152200e-02
-6.77390000 3.08449000e-02
-6.74390000 2.89749000e-02
-6.71390000 2.76284200e-02
-6.68390000 2.69824900e-02
-6.65390000 2.71765600e-02
-6.61588000 2.83233000e-02
-6.58588000 2.87317200e-02
-6.55588000 2.82077800e-02
-6.52588000 2.78843000e-02
-6.49588000 2.87909200e-02
-6.46588000 3.09948200e-02
-6.43588000 3.37342600e-02
-6.40588000 3.43130600e-02
-6.37588000 3.30391000e-02
-6.34588000 3.25126800e-02
-6.31588000 3.37761000e-02
-6.28588000 3.64601000e-02
-6.25588000 4.07864000e-02
-6.22588000 4.97311000e-02
-6.19588000 6.60856000e-02
-6.16588000 7.82152000e-02
-6.13588000 7.57917000e-02
-6.10588000 7.27839000e-02
-6.07588000 7.30881000e-02
-6.04588000 7.89504000e-02
-6.01588000 8.13947000e-02
-5.98588000 7.76845000e-02
-5.95588000 8.01626000e-02
-5.92588000 7.59295000e-02
-5.89588000 6.55019000e-02
-5.86588000 6.42486000e-02
-5.83588000 7.44211000e-02
-5.80588000 9.01935000e-02
-5.77588000 9.76224000e-02
-5.74588000 8.26033000e-02
-5.71588000 6.74616000e-02
-5.68588000 6.08712000e-02
-5.65588000 5.73588000e-02
-5.62588000 5.18697000e-02
-5.59588000 4.97569000e-02
-5.56588000 5.13465000e-02
-5.53588000 5.19058000e-02
-5.50588000 4.96416000e-02
-5.47588000 4.92098000e-02
-5.44588000 4.81589000e-02
-5.41588000 4.62410000e-02
-5.37785000 4.87586000e-02
-5.34785000 5.13190000e-02
-5.31785000 5.31243000e-02
-5.28785000 5.46613000e-02
-5.25785000 5.74078000e-02
-5.22785000 6.12279000e-02
-5.19785000 6.19265000e-02
-5.16785000 5.49964000e-02
-5.13785000 5.12680000e-02
-5.10785000 5.28087000e-02
-5.07785000 5.83436000e-02
-5.04785000 7.06429000e-02
-5.01785000 8.95366000e-02
-4.98785000 9.37028000e-02
-4.95785000 8.21516000e-02
-4.92785000 7.48729000e-02
-4.89785000 7.71978000e-02
-4.86785000 9.00800000e-02
-4.83785000 1.20351800e-01
-4.80785000 1.79264400e-01
-4.77785000 2.42303400e-01
-4.74785000 2.38726700e-01
-4.71785000 2.05415800e-01
-4.68785000 1.61940600e-01
-4.65785000 1.18269900e-01
-4.62785000 9.69986000e-02
-4.59785000 9.45218000e-02
-4.56785000 9.52526000e-02
-4.53785000 8.68502000e-02
-4.50785000 8.30013000e-02
-4.47785000 8.52973000e-02
-4.44785000 8.53160000e-02
-4.41785000 8.25770000e-02
-4.38785000 8.15543000e-02
-4.35785000 8.08233000e-02
-4.32785000 8.20325000e-02
-4.29785000 8.69864000e-02
-4.26785000 1.00017300e-01
-4.23785000 1.30435800e-01
-4.20785000 1.90646100e-01
-4.17785000 2.61398800e-01
-4.13983000 2.53589000e-01
-4.10983000 1.94815200e-01
-4.07983000 1.46208500e-01
-4.04983000 1.18490400e-01
-4.01983000 1.04295200e-01
-3.98983000 9.07438000e-02
-3.95983000 8.04287000e-02
-3.92983000 7.50388000e-02
-3.89983000 7.17361000e-02
-3.86983000 7.25094000e-02
-3.83983000 7.89787000e-02
-3.80983000 8.65417000e-02
-3.77983000 8.74512000e-02
-3.74983000 8.58833000e-02
-3.71983000 8.11215000e-02
-3.68983000 7.32789000e-02
-3.65983000 6.75642000e-02
-3.62983000 6.56052000e-02
-3.59983000 6.70927000e-02
-3.56983000 7.08974000e-02
-3.53983000 7.64509000e-02
-3.50983000 8.51571000e-02
-3.47983000 9.83056000e-02
-3.44983000 1.11915600e-01
-3.41983000 1.35145000e-01
-3.38983000 1.72354800e-01
-3.35983000 1.88959200e-01
-3.32983000 1.92902800e-01
-3.29983000 2.27847400e-01
-3.26983000 3.22113400e-01
-3.23983000 5.04231600e-01
-3.20983000 6.75078000e-01
-3.17983000 5.99177600e-01
-3.14983000 3.99900800e-01
-3.11983000 2.57186400e-01
-3.08983000 1.82990200e-01
-3.05983000 1.45968000e-01
-3.02983000 1.27928300e-01
-2.99983000 1.21497900e-01
-2.96983000 1.24073700e-01
-2.93983000 1.39273300e-01
-2.90180000 1.68654100e-01
-2.87180000 1.84295400e-01
-2.84180000 1.82808600e-01
-2.81180000 1.62309600e-01
-2.78180000 1.34434800e-01
-2.75180000 1.22856600e-01
-2.72180000 1.27221400e-01
-2.69180000 1.39954700e-01
-2.66180000 1.56786000e-01
-2.63180000 1.91665000e-01
-2.60180000 2.52031800e-01
-2.57180000 2.99320600e-01
-2.54180000 2.63531600e-01
-2.51180000 1.94351700e-01
-2.48180000 1.49539600e-01
-2.45180000 1.29384700e-01
-2.42180000 1.20685000e-01
-2.39180000 1.16969600e-01
-2.36180000 1.14758300e-01
-2.33180000 1.16863800e-01
-2.30180000 1.26368900e-01
-2.27180000 1.43529100e-01
-2.24180000 1.65597400e-01
-2.21180000 1.81987200e-01
-2.18180000 1.99111400e-01
-2.15180000 2.31255600e-01
-2.12180000 2.56724400e-01
-2.09180000 2.75609200e-01
-2.06180000 3.05727000e-01
-2.03180000 3.29787400e-01
-2.00180000 3.73941400e-01
-1.97180000 4.72406400e-01
-1.94180000 5.97390200e-01
-1.91180000 8.35574600e-01
-1.88180000 1.32341240e+00
-1.85180000 1.63565440e+00
-1.82180000 1.19248540e+00
-1.79180000 7.30008200e-01
-1.76180000 4.88532600e-01
-1.73180000 3.70750800e-01
-1.70180000 2.97506200e-01
-1.66378000 2.43744800e-01
-1.63378000 2.26058200e-01
-1.60378000 2.13536200e-01
-1.57378000 1.99091000e-01
-1.54378000 1.87705900e-01
-1.51378000 1.82981400e-01
-1.48378000 1.83369200e-01
-1.45378000 1.86778700e-01
-1.42378000 1.93536200e-01
-1.39378000 2.05374500e-01
-1.36378000 2.23079500e-01
-1.33378000 2.45140900e-01
-1.30378000 2.67419100e-01
-1.27378000 2.96528200e-01
-1.24378000 3.37251800e-01
-1.21378000 3.97423100e-01
-1.18378000 4.82496500e-01
-1.15378000 6.10690300e-01
-1.12378000 8.14174500e-01
-1.09378000 1.15874200e+00
-1.06378000 1.82263060e+00
-1.03378000 3.07665100e+00
-1.00378000 4.46694100e+00
-0.97377800 4.20598300e+00
-0.94377800 3.02600800e+00
-0.91377800 1.96707700e+00
-0.88377800 1.32024700e+00
-0.85377800 1.00824300e+00
-0.82377800 8.91317000e-01
-0.79377800 9.12943000e-01
-0.76377800 1.07605700e+00
-0.73377800 1.46906400e+00
-0.70377800 2.12320000e+00
-0.67377800 2.27747800e+00
-0.64377800 1.69949600e+00
-0.61377800 1.34372300e+00
-0.58377800 1.32500700e+00
-0.55377800 1.58094500e+00
-0.52377800 2.17247700e+00
-0.49377800 3.34521000e+00
-0.46377800 4.63370600e+00
-0.42575400 3.54547600e+00
-0.39575400 2.19044600e+00
-0.36575400 1.46777500e+00
-0.33575400 1.09379900e+00
-0.30575400 8.89628000e-01
-0.27575400 7.74215000e-01
-0.24575400 7.21606000e-01
-0.21575400 7.16482000e-01
-0.18575400 7.52527000e-01
-0.15575400 8.39224000e-01
-0.12575400 1.00903100e+00
-0.09575420 1.34011900e+00
-0.06575420 1.90798200e+00
-0.03575420 2.51215600e+00
-0.00575418 2.67989400e+00
0.02424580 2.89982600e+00
0.05424580 3.23734300e+00
0.08424580 2.70776900e+00
0.11424600 2.20113000e+00
0.14424600 2.15425700e+00
0.17424600 2.28913900e+00
0.20424600 2.32233000e+00
0.23424600 2.54050900e+00
0.26424600 3.10446000e+00
0.29424600 4.05476000e+00
0.32424600 5.68584000e+00
0.35424600 8.55621000e+00
0.38424600 1.40675200e+01
0.41424600 2.25430400e+01
0.44424600 2.94232900e+01
0.47424600 2.77833200e+01
0.50424600 1.73750100e+01
0.53424600 1.00185700e+01
0.56424600 6.26669000e+00
0.59424600 4.31960000e+00
0.62424600 3.22331900e+00
0.65424600 2.54225400e+00
0.68424600 2.09604000e+00
0.71424600 1.74435100e+00
0.74424600 1.47950500e+00
0.77424600 1.29963800e+00
