# E(MeV)  S_GAMTGAMT(K=1) for Hs335_DDPCX
-11.56800000 3.57627000e-03
-11.53800000 3.51057000e-03
-11.50800000 3.49359000e-03
-11.47800000 3.50462000e-03
-11.44800000 3.53647000e-03
-11.41800000 3.59231000e-03
-11.38800000 3.68684000e-03
-11.35800000 3.85712000e-03
-11.32800000 4.18746000e-03
-11.29800000 4.77327000e-03
-11.26800000 5.12732000e-03
-11.23800000 4.62089000e-03
-11.20800000 4.12569000e-03
-11.17800000 3.87471000e-03
-11.14800000 3.75348000e-03
-11.11800000 3.69271000e-03
-11.08800000 3.66192000e-03
-11.05800000 3.64728000e-03
-11.02800000 3.64202000e-03
-10.99800000 3.64258000e-03
-10.96800000 3.64694000e-03
-10.93800000 3.65393000e-03
-10.90800000 3.66278000e-03
-10.87800000 3.67305000e-03
-10.84800000 3.68440000e-03
-10.81800000 3.69664000e-03
-10.78800000 3.70962000e-03
-10.75800000 3.72326000e-03
-10.72800000 3.73748000e-03
-10.69800000 3.75226000e-03
-10.66800000 3.76758000e-03
-10.63800000 3.78345000e-03
-10.60800000 3.79989000e-03
-10.57800000 3.81694000e-03
-10.54800000 3.83466000e-03
-10.51800000 3.85313000e-03
-10.48800000 3.87247000e-03
-10.45800000 3.89284000e-03
-10.42800000 3.91445000e-03
-10.39800000 3.93761000e-03
-10.36800000 3.96275000e-03
-10.32990000 3.99849000e-03
-10.29990000 4.03105000e-03
-10.26990000 4.06936000e-03
-10.23990000 4.11652000e-03
-10.20990000 4.17830000e-03
-10.17990000 4.26623000e-03
-10.14990000 4.40530000e-03
-10.11990000 4.64992000e-03
-10.08990000 5.06848000e-03
-10.05990000 5.47998000e-03
-10.02990000 5.46210000e-03
-9.99995000 5.09539000e-03
-9.96995000 4.88066000e-03
-9.93995000 4.87071000e-03
-9.90995000 5.03414000e-03
-9.87995000 5.42327000e-03
-9.84995000 6.04782000e-03
-9.81995000 6.41996000e-03
-9.78995000 6.77661000e-03
-9.75995000 7.96327000e-03
-9.72995000 9.23778000e-03
-9.69995000 8.35232000e-03
-9.66995000 7.18569000e-03
-9.63995000 6.51918000e-03
-9.60995000 5.81486000e-03
-9.57995000 5.35592000e-03
-9.54995000 5.12538000e-03
-9.51995000 5.01995000e-03
-9.48995000 4.98344000e-03
-9.45995000 4.98412000e-03
-9.42995000 5.01856000e-03
-9.39995000 5.09140000e-03
-9.36995000 5.21202000e-03
-9.33995000 5.40561000e-03
-9.30995000 5.73128000e-03
-9.27995000 6.32427000e-03
-9.24995000 7.41204000e-03
-9.21995000 8.58989000e-03
-9.18995000 8.22766000e-03
-9.15995000 7.57234000e-03
-9.12995000 7.73717000e-03
-9.09192000 8.59340000e-03
-9.06192000 8.27300000e-03
-9.03192000 7.84262000e-03
-9.00192000 7.99711000e-03
-8.97192000 8.73915000e-03
-8.94192000 1.02631000e-02
-8.91192000 1.32191000e-02
-8.88192000 1.90239000e-02
-8.85192000 2.79336000e-02
-8.82192000 3.05154000e-02
-8.79192000 2.78724000e-02
-8.76192000 3.02726000e-02
-8.73192000 2.82024000e-02
-8.70192000 1.96224000e-02
-8.67192000 1.39975000e-02
-8.64192000 1.12991000e-02
-8.61192000 1.02062000e-02
-8.58192000 1.02132000e-02
-8.55192000 1.12257000e-02
-8.52192000 1.23071000e-02
-8.49192000 1.30685000e-02
-8.46192000 1.58824000e-02
-8.43192000 2.03547000e-02
-8.40192000 1.96672000e-02
-8.37192000 1.51317000e-02
-8.34192000 1.26389000e-02
-8.31192000 1.09981000e-02
-8.28192000 9.46081000e-03
-8.25192000 8.55746000e-03
-8.22192000 8.34472000e-03
-8.19192000 8.82305000e-03
-8.16192000 1.01602000e-02
-8.13192000 1.19996000e-02
-8.10192000 1.23999000e-02
-8.07192000 1.11527000e-02
-8.04192000 1.04793000e-02
-8.01192000 9.40707000e-03
-7.98192000 8.11613000e-03
-7.95192000 7.39166000e-03
-7.92192000 7.06145000e-03
-7.89192000 6.95012000e-03
-7.85390000 7.01827000e-03
-7.82390000 7.24384000e-03
-7.79390000 7.67962000e-03
-7.76390000 8.37370000e-03
-7.73390000 9.47317000e-03
-7.70390000 1.04833000e-02
-7.67390000 1.12648000e-02
-7.64390000 1.25276000e-02
-7.61390000 1.42121000e-02
-7.58390000 1.76807000e-02
-7.55390000 2.18592000e-02
-7.52390000 1.93809000e-02
-7.49390000 1.46107000e-02
-7.46390000 1.22720000e-02
-7.43390000 1.17778000e-02
-7.40390000 1.20605000e-02
-7.37390000 1.26944000e-02
-7.34390000 1.47015000e-02
-7.31390000 1.94347000e-02
-7.28390000 2.88144000e-02
-7.25390000 3.83173000e-02
-7.22390000 3.28196000e-02
-7.19390000 2.32175000e-02
-7.16390000 1.74352000e-02
-7.13390000 1.42504000e-02
-7.10390000 1.32569000e-02
-7.07390000 1.34131000e-02
-7.04390000 1.27063000e-02
-7.01390000 1.11861000e-02
-6.98390000 1.02152000e-02
-6.95390000 1.01420000e-02
-6.92390000 1.11068000e-02
-6.89390000 1.30688000e-02
-6.86390000 1.34441000e-02
-6.83390000 1.13484000e-02
-6.80390000 9.86776000e-03
-6.77390000 9.28910000e-03
-6.74390000 9.06835000e-03
-6.71390000 8.75751000e-03
-6.68390000 8.55630000e-03
-6.65390000 8.54573000e-03
-6.61588000 8.86280000e-03
-6.58588000 9.17806000e-03
-6.55588000 9.03144000e-03
-6.52588000 8.74290000e-03
-6.49588000 8.77681000e-03
-6.46588000 9.09346000e-03
-6.43588000 9.24138000e-03
-6.40588000 9.12028000e-03
-6.37588000 9.26940000e-03
-6.34588000 9.72114000e-03
-6.31588000 1.04416000e-02
-6.28588000 1.12464000e-02
-6.25588000 1.21859000e-02
-6.22588000 1.43670000e-02
-6.19588000 1.85598000e-02
-6.16588000 2.21771000e-02
-6.13588000 2.20843000e-02
-6.10588000 2.10235000e-02
-6.07588000 2.08514000e-02
-6.04588000 2.14002000e-02
-6.01588000 2.11494000e-02
-5.98588000 2.33076000e-02
-5.95588000 2.78854000e-02
-5.92588000 2.68649000e-02
-5.89588000 2.19969000e-02
-5.86588000 2.06547000e-02
-5.83588000 2.35450000e-02
-5.80588000 3.07738000e-02
-5.77588000 3.71205000e-02
-5.74588000 3.19164000e-02
-5.71588000 2.56966000e-02
-5.68588000 2.32963000e-02
-5.65588000 2.18636000e-02
-5.62588000 1.89539000e-02
-5.59588000 1.71103000e-02
-5.56588000 1.70419000e-02
-5.53588000 1.79732000e-02
-5.50588000 1.77775000e-02
-5.47588000 1.78971000e-02
-5.44588000 1.72500000e-02
-5.41588000 1.56784000e-02
-5.37785000 1.55347000e-02
-5.34785000 1.52696000e-02
-5.31785000 1.45991000e-02
-5.28785000 1.47836000e-02
-5.25785000 1.53721000e-02
-5.22785000 1.44370000e-02
-5.19785000 1.34333000e-02
-5.16785000 1.32200000e-02
-5.13785000 1.37399000e-02
-5.10785000 1.50583000e-02
-5.07785000 1.75672000e-02
-5.04785000 2.22248000e-02
-5.01785000 2.82949000e-02
-4.98785000 2.88379000e-02
-4.95785000 2.56902000e-02
-4.92785000 2.36873000e-02
-4.89785000 2.41588000e-02
-4.86785000 2.75029000e-02
-4.83785000 3.58095000e-02
-4.80785000 5.16831000e-02
-4.77785000 6.75087000e-02
-4.74785000 7.34489000e-02
-4.71785000 7.38409000e-02
-4.68785000 6.18910000e-02
-4.65785000 4.48480000e-02
-4.62785000 3.66096000e-02
-4.59785000 3.65184000e-02
-4.56785000 3.72130000e-02
-4.53785000 3.26968000e-02
-4.50785000 2.97701000e-02
-4.47785000 3.00190000e-02
-4.44785000 3.03618000e-02
-4.41785000 2.92196000e-02
-4.38785000 2.81954000e-02
-4.35785000 2.64977000e-02
-4.32785000 2.52645000e-02
-4.29785000 2.57874000e-02
-4.26785000 2.92057000e-02
-4.23785000 3.81867000e-02
-4.20785000 5.61239000e-02
-4.17785000 7.19994000e-02
-4.13983000 5.47735000e-02
-4.10983000 3.93366000e-02
-4.07983000 3.21793000e-02
-4.04983000 3.03918000e-02
-4.01983000 3.10700000e-02
-3.98983000 2.87120000e-02
-3.95983000 2.59951000e-02
-3.92983000 2.46409000e-02
-3.89983000 2.35790000e-02
-3.86983000 2.40161000e-02
-3.83983000 2.67884000e-02
-3.80983000 3.04482000e-02
-3.77983000 3.09780000e-02
-3.74983000 3.00086000e-02
-3.71983000 2.71131000e-02
-3.68983000 2.31128000e-02
-3.65983000 2.07733000e-02
-3.62983000 1.99014000e-02
-3.59983000 2.02300000e-02
-3.56983000 2.13443000e-02
-3.53983000 2.29998000e-02
-3.50983000 2.58495000e-02
-3.47983000 3.02621000e-02
-3.44983000 3.39164000e-02
-3.41983000 4.09266000e-02
-3.38983000 5.29343000e-02
-3.35983000 5.15623000e-02
-3.32983000 3.94044000e-02
-3.29983000 3.24432000e-02
-3.26983000 3.00292000e-02
-3.23983000 2.83293000e-02
-3.20983000 2.57025000e-02
-3.17983000 2.36038000e-02
-3.14983000 2.17574000e-02
-3.11983000 2.06802000e-02
-3.08983000 2.05111000e-02
-3.05983000 2.11210000e-02
-3.02983000 2.25203000e-02
-2.99983000 2.42504000e-02
-2.96983000 2.59506000e-02
-2.93983000 2.95379000e-02
-2.90180000 3.54027000e-02
-2.87180000 3.36882000e-02
-2.84180000 3.03123000e-02
-2.81180000 2.93318000e-02
-2.78180000 3.01796000e-02
-2.75180000 3.30183000e-02
-2.72180000 3.86377000e-02
-2.69180000 4.56285000e-02
-2.66180000 5.46775000e-02
-2.63180000 7.39627000e-02
-2.60180000 1.06012000e-01
-2.57180000 1.30600000e-01
-2.54180000 1.12803000e-01
-2.51180000 7.81854000e-02
-2.48180000 5.55235000e-02
-2.45180000 4.45914000e-02
-2.42180000 3.88231000e-02
-2.39180000 3.49027000e-02
-2.36180000 3.21021000e-02
-2.33180000 3.10073000e-02
-2.30180000 3.13750000e-02
-2.27180000 3.29076000e-02
-2.24180000 3.57184000e-02
-2.21180000 3.81101000e-02
-2.18180000 4.15752000e-02
-2.15180000 4.52818000e-02
-2.12180000 4.43687000e-02
-2.09180000 4.24046000e-02
-2.06180000 4.00580000e-02
-2.03180000 3.70117000e-02
-2.00180000 3.51467000e-02
-1.97180000 3.47892000e-02
-1.94180000 3.48696000e-02
-1.91180000 3.55853000e-02
-1.88180000 3.64762000e-02
-1.85180000 3.72522000e-02
-1.82180000 3.91877000e-02
-1.79180000 4.34156000e-02
-1.76180000 5.09343000e-02
-1.73180000 5.73849000e-02
-1.70180000 5.59356000e-02
-1.66378000 5.22739000e-02
-1.63378000 5.26096000e-02
-1.60378000 5.45736000e-02
-1.57378000 5.53473000e-02
-1.54378000 5.55817000e-02
-1.51378000 5.75632000e-02
-1.48378000 6.07305000e-02
-1.45378000 6.42961000e-02
-1.42378000 6.86531000e-02
-1.39378000 7.50253000e-02
-1.36378000 8.43532000e-02
-1.33378000 9.55706000e-02
-1.30378000 1.06795000e-01
-1.27378000 1.21285000e-01
-1.24378000 1.41237000e-01
-1.21378000 1.70514000e-01
-1.18378000 2.11795000e-01
-1.15378000 2.73925000e-01
-1.12378000 3.72489000e-01
-1.09378000 5.41101000e-01
-1.06378000 8.70084000e-01
-1.03378000 1.49380000e+00
-1.00378000 2.18242000e+00
-0.97377800 2.04102000e+00
-0.94377800 1.44109000e+00
-0.91377800 9.07627000e-01
-0.88377800 5.76291000e-01
-0.85377800 4.02599000e-01
-0.82377800 3.12963000e-01
-0.79377800 2.68183000e-01
-0.76377800 2.42628000e-01
-0.73377800 2.28067000e-01
-0.70377800 2.29640000e-01
-0.67377800 2.45499000e-01
-0.64377800 2.77308000e-01
-0.61377800 3.38277000e-01
-0.58377800 4.49451000e-01
-0.55377800 6.39251000e-01
-0.52377800 9.67161000e-01
-0.49377800 1.57092000e+00
-0.46377800 2.22805000e+00
-0.42575400 1.69250000e+00
-0.39575400 1.01754000e+00
-0.36575400 6.57142000e-01
-0.33575400 4.67394000e-01
-0.30575400 3.63224000e-01
-0.27575400 3.03930000e-01
-0.24575400 2.72645000e-01
-0.21575400 2.60083000e-01
-0.18575400 2.61261000e-01
-0.15575400 2.76501000e-01
-0.12575400 3.11966000e-01
-0.09575420 3.84530000e-01
-0.06575420 4.90940000e-01
-0.03575420 5.70783000e-01
-0.00575418 7.07987000e-01
0.02424580 1.02533000e+00
0.05424580 1.30860000e+00
0.08424580 1.07828000e+00
0.11424600 8.04934000e-01
0.14424600 7.15496000e-01
0.17424600 7.25728000e-01
0.20424600 7.51823000e-01
0.23424600 8.39370000e-01
0.26424600 1.02620000e+00
0.29424600 1.30563000e+00
0.32424600 1.75034000e+00
0.35424600 2.46551000e+00
0.38424600 3.83000000e+00
0.41424600 6.55610000e+00
0.44424600 1.08493000e+01
0.47424600 1.16630000e+01
0.50424600 7.38219000e+00
0.53424600 4.17610000e+00
0.56424600 2.55896000e+00
0.59424600 1.74306000e+00
0.62424600 1.29629000e+00
0.65424600 1.02020000e+00
0.68424600 8.39736000e-01
0.71424600 6.90651000e-01
0.74424600 5.71453000e-01
0.77424600 4.96763000e-01
