# E(MeV)  S_GAMTGAMT(K=0) for Hs335_DDPCX
-11.56800000 3.29306000e-03
-11.53800000 3.30580000e-03
-11.50800000 3.31859000e-03
-11.47800000 3.33143000e-03
-11.44800000 3.34434000e-03
-11.41800000 3.35731000e-03
-11.38800000 3.37036000e-03
-11.35800000 3.38349000e-03
-11.32800000 3.39672000e-03
-11.29800000 3.41004000e-03
-11.26800000 3.42349000e-03
-11.23800000 3.43706000e-03
-11.20800000 3.45077000e-03
-11.17800000 3.46466000e-03
-11.14800000 3.47874000e-03
-11.11800000 3.49305000e-03
-11.08800000 3.50766000e-03
-11.05800000 3.52264000e-03
-11.02800000 3.53813000e-03
-10.99800000 3.55437000e-03
-10.96800000 3.57184000e-03
-10.93800000 3.59149000e-03
-10.90800000 3.61554000e-03
-10.87800000 3.64822000e-03
-10.84800000 3.68730000e-03
-10.81800000 3.69991000e-03
-10.78800000 3.69458000e-03
-10.75800000 3.69875000e-03
-10.72800000 3.71108000e-03
-10.69800000 3.72810000e-03
-10.66800000 3.74842000e-03
-10.63800000 3.77187000e-03
-10.60800000 3.79903000e-03
-10.57800000 3.83120000e-03
-10.54800000 3.87087000e-03
-10.51800000 3.92266000e-03
-10.48800000 3.99566000e-03
-10.45800000 4.10926000e-03
-10.42800000 4.30734000e-03
-10.39800000 4.68056000e-03
-10.36800000 5.24073000e-03
-10.32990000 5.19023000e-03
-10.29990000 4.71759000e-03
-10.26990000 4.47164000e-03
-10.23990000 4.39823000e-03
-10.20990000 4.43300000e-03
-10.17990000 4.57356000e-03
-10.14990000 4.88185000e-03
-10.11990000 5.50798000e-03
-10.08990000 6.42711000e-03
-10.05990000 6.45737000e-03
-10.02990000 5.73358000e-03
-9.99995000 5.42246000e-03
-9.96995000 5.31136000e-03
-9.93995000 4.99087000e-03
-9.90995000 4.74663000e-03
-9.87995000 4.64954000e-03
-9.84995000 4.64583000e-03
-9.81995000 4.71406000e-03
-9.78995000 4.86675000e-03
-9.75995000 5.15893000e-03
-9.72995000 5.73023000e-03
-9.69995000 6.85743000e-03
-9.66995000 8.37585000e-03
-9.63995000 8.09074000e-03
-9.60995000 6.59645000e-03
-9.57995000 5.68863000e-03
-9.54995000 5.25940000e-03
-9.51995000 5.06157000e-03
-9.48995000 4.98070000e-03
-9.45995000 4.96949000e-03
-9.42995000 5.01118000e-03
-9.39995000 5.10721000e-03
-9.36995000 5.27852000e-03
-9.33995000 5.58136000e-03
-9.30995000 6.14691000e-03
-9.27995000 7.16114000e-03
-9.24995000 8.02005000e-03
-9.21995000 7.42996000e-03
-9.18995000 6.73624000e-03
-9.15995000 6.54804000e-03
-9.12995000 6.72661000e-03
-9.09192000 7.42625000e-03
-9.06192000 8.51651000e-03
-9.03192000 1.05134000e-02
-9.00192000 1.43983000e-02
-8.97192000 2.20278000e-02
-8.94192000 3.17847000e-02
-8.91192000 2.95698000e-02
-8.88192000 2.13240000e-02
-8.85192000 1.60562000e-02
-8.82192000 1.19469000e-02
-8.79192000 9.48927000e-03
-8.76192000 8.12080000e-03
-8.73192000 7.32523000e-03
-8.70192000 6.91390000e-03
-8.67192000 6.78717000e-03
-8.64192000 6.96395000e-03
-8.61192000 7.58035000e-03
-8.58192000 8.39214000e-03
-8.55192000 7.99837000e-03
-8.52192000 7.09938000e-03
-8.49192000 6.63393000e-03
-8.46192000 6.50013000e-03
-8.43192000 6.59000000e-03
-8.40192000 6.91450000e-03
-8.37192000 7.61883000e-03
-8.34192000 9.07206000e-03
-8.31192000 1.16081000e-02
-8.28192000 1.27949000e-02
-8.25192000 1.06027000e-02
-8.22192000 8.82922000e-03
-8.19192000 8.11424000e-03
-8.16192000 7.83334000e-03
-8.13192000 7.72196000e-03
-8.10192000 7.52219000e-03
-8.07192000 7.48370000e-03
-8.04192000 7.70221000e-03
-8.01192000 8.18657000e-03
-7.98192000 9.03660000e-03
-7.95192000 1.05267000e-02
-7.92192000 1.33012000e-02
-7.89192000 1.87565000e-02
-7.85390000 3.01095000e-02
-7.82390000 3.02639000e-02
-7.79390000 2.36573000e-02
-7.76390000 1.89955000e-02
-7.73390000 1.56676000e-02
-7.70390000 1.39855000e-02
-7.67390000 1.43124000e-02
-7.64390000 1.70175000e-02
-7.61390000 2.25095000e-02
-7.58390000 2.86387000e-02
-7.55390000 2.93852000e-02
-7.52390000 2.23918000e-02
-7.49390000 1.68089000e-02
-7.46390000 1.45898000e-02
-7.43390000 1.44974000e-02
-7.40390000 1.54573000e-02
-7.37390000 1.70495000e-02
-7.34390000 1.99176000e-02
-7.31390000 2.61515000e-02
-7.28390000 3.75848000e-02
-7.25390000 4.18308000e-02
-7.22390000 2.99520000e-02
-7.19390000 2.02655000e-02
-7.16390000 1.55497000e-02
-7.13390000 1.35278000e-02
-7.10390000 1.30687000e-02
-7.07390000 1.35631000e-02
-7.04390000 1.41991000e-02
-7.01390000 1.55602000e-02
-6.98390000 1.90585000e-02
-6.95390000 2.67903000e-02
-6.92390000 3.85928000e-02
-6.89390000 3.96106000e-02
-6.86390000 2.82105000e-02
-6.83390000 1.99447000e-02
-6.80390000 1.49797000e-02
-6.77390000 1.22667000e-02
-6.74390000 1.08382000e-02
-6.71390000 1.01134000e-02
-6.68390000 9.86989000e-03
-6.65390000 1.00851000e-02
-6.61588000 1.05977000e-02
-6.58588000 1.03756000e-02
-6.55588000 1.01449000e-02
-6.52588000 1.03985000e-02
-6.49588000 1.12373000e-02
-6.46588000 1.28079000e-02
-6.43588000 1.52515000e-02
-6.40588000 1.60725000e-02
-6.37588000 1.45003000e-02
-6.34588000 1.30704000e-02
-6.31588000 1.28929000e-02
-6.28588000 1.39673000e-02
-6.25588000 1.64146000e-02
-6.22588000 2.09971000e-02
-6.19588000 2.89660000e-02
-6.16588000 3.38610000e-02
-6.13588000 3.16231000e-02
-6.10588000 3.07369000e-02
-6.07588000 3.13853000e-02
-6.04588000 3.61500000e-02
-6.01588000 3.90959000e-02
-5.98588000 3.10693000e-02
-5.95588000 2.43918000e-02
-5.92588000 2.21997000e-02
-5.89588000 2.15081000e-02
-5.86588000 2.29392000e-02
-5.83588000 2.73311000e-02
-5.80588000 2.86459000e-02
-5.77588000 2.33814000e-02
-5.74588000 1.87705000e-02
-5.71588000 1.60684000e-02
-5.68588000 1.42786000e-02
-5.65588000 1.36316000e-02
-5.62588000 1.39619000e-02
-5.59588000 1.55363000e-02
-5.56588000 1.72627000e-02
-5.53588000 1.59594000e-02
-5.50588000 1.40866000e-02
-5.47588000 1.34156000e-02
-5.44588000 1.36589000e-02
-5.41588000 1.48842000e-02
-5.37785000 1.76892000e-02
-5.34785000 2.07798000e-02
-5.31785000 2.39261000e-02
-5.28785000 2.50941000e-02
-5.25785000 2.66636000e-02
-5.22785000 3.23539000e-02
-5.19785000 3.50599000e-02
-5.16785000 2.85564000e-02
-5.13785000 2.37882000e-02
-5.10785000 2.26921000e-02
-5.07785000 2.32092000e-02
-5.04785000 2.61933000e-02
-5.01785000 3.29468000e-02
-4.98785000 3.60270000e-02
-4.95785000 3.07712000e-02
-4.92785000 2.74983000e-02
-4.89785000 2.88802000e-02
-4.86785000 3.50742000e-02
-4.83785000 4.87328000e-02
-4.80785000 7.58982000e-02
-4.77785000 1.07286000e-01
-4.74785000 9.18289000e-02
-4.71785000 5.77340000e-02
-4.68785000 3.81586000e-02
-4.65785000 2.85739000e-02
-4.62785000 2.37794000e-02
-4.59785000 2.14850000e-02
-4.56785000 2.08266000e-02
-4.53785000 2.14566000e-02
-4.50785000 2.34611000e-02
-4.47785000 2.52593000e-02
-4.44785000 2.45924000e-02
-4.41785000 2.41378000e-02
-4.38785000 2.51635000e-02
-4.35785000 2.78279000e-02
-4.32785000 3.15035000e-02
-4.29785000 3.54116000e-02
-4.26785000 4.16059000e-02
-4.23785000 5.40624000e-02
-4.20785000 7.83983000e-02
-4.17785000 1.17400000e-01
-4.13983000 1.44042000e-01
-4.10983000 1.16142000e-01
-4.07983000 8.18499000e-02
-4.04983000 5.77068000e-02
-4.01983000 4.21552000e-02
-3.98983000 3.33198000e-02
-3.95983000 2.84385000e-02
-3.92983000 2.57570000e-02
-3.89983000 2.45781000e-02
-3.86983000 2.44772000e-02
-3.83983000 2.54019000e-02
-3.80983000 2.56453000e-02
-3.77983000 2.54952000e-02
-3.74983000 2.58661000e-02
-3.71983000 2.68953000e-02
-3.68983000 2.70533000e-02
-3.65983000 2.60176000e-02
-3.62983000 2.58024000e-02
-3.59983000 2.66327000e-02
-3.56983000 2.82088000e-02
-3.53983000 3.04513000e-02
-3.50983000 3.34581000e-02
-3.47983000 3.77814000e-02
-3.44983000 4.40828000e-02
-3.41983000 5.32918000e-02
-3.38983000 6.64862000e-02
-3.35983000 8.58346000e-02
-3.32983000 1.14094000e-01
-3.29983000 1.62961000e-01
-3.26983000 2.62055000e-01
-3.23983000 4.47573000e-01
-3.20983000 6.23673000e-01
-3.17983000 5.51970000e-01
-3.14983000 3.56386000e-01
-3.11983000 2.15826000e-01
-3.08983000 1.41968000e-01
-3.05983000 1.03726000e-01
-3.02983000 8.28877000e-02
-2.99983000 7.29971000e-02
-2.96983000 7.21725000e-02
-2.93983000 8.01975000e-02
-2.90180000 9.78487000e-02
-2.87180000 1.16919000e-01
-2.84180000 1.22184000e-01
-2.81180000 1.03646000e-01
-2.78180000 7.40756000e-02
-2.75180000 5.68200000e-02
-2.72180000 4.99460000e-02
-2.69180000 4.86977000e-02
-2.66180000 4.74310000e-02
-2.63180000 4.37396000e-02
-2.60180000 4.00078000e-02
-2.57180000 3.81206000e-02
-2.54180000 3.79256000e-02
-2.51180000 3.79809000e-02
-2.48180000 3.84926000e-02
-2.45180000 4.02019000e-02
-2.42180000 4.30388000e-02
-2.39180000 4.71642000e-02
-2.36180000 5.05541000e-02
-2.33180000 5.48492000e-02
-2.30180000 6.36189000e-02
-2.27180000 7.77139000e-02
-2.24180000 9.41606000e-02
-2.21180000 1.05767000e-01
-2.18180000 1.15961000e-01
-2.15180000 1.40692000e-01
-2.12180000 1.67987000e-01
-2.09180000 1.90800000e-01
-2.06180000 2.25611000e-01
-2.03180000 2.55764000e-01
-2.00180000 3.03648000e-01
-1.97180000 4.02828000e-01
-1.94180000 5.27651000e-01
-1.91180000 7.64404000e-01
-1.88180000 1.25046000e+00
-1.85180000 1.56115000e+00
-1.82180000 1.11411000e+00
-1.79180000 6.43177000e-01
-1.76180000 3.86664000e-01
-1.73180000 2.55981000e-01
-1.70180000 1.85635000e-01
-1.66378000 1.39197000e-01
-1.63378000 1.20839000e-01
-1.60378000 1.04389000e-01
-1.57378000 8.83964000e-02
-1.54378000 7.65425000e-02
-1.51378000 6.78550000e-02
-1.48378000 6.19082000e-02
-1.45378000 5.81865000e-02
-1.42378000 5.62300000e-02
-1.39378000 5.53239000e-02
-1.36378000 5.43731000e-02
-1.33378000 5.39997000e-02
-1.30378000 5.38291000e-02
-1.27378000 5.39582000e-02
-1.24378000 5.47778000e-02
-1.21378000 5.63951000e-02
-1.18378000 5.89065000e-02
-1.15378000 6.28403000e-02
-1.12378000 6.91965000e-02
-1.09378000 7.65400000e-02
-1.06378000 8.24626000e-02
-1.03378000 8.90510000e-02
-1.00378000 1.02101000e-01
-0.97377800 1.23943000e-01
-0.94377800 1.43828000e-01
-0.91377800 1.51823000e-01
-0.88377800 1.67665000e-01
-0.85377800 2.03045000e-01
-0.82377800 2.65391000e-01
-0.79377800 3.76577000e-01
-0.76377800 5.90801000e-01
-0.73377800 1.01293000e+00
-0.70377800 1.66392000e+00
-0.67377800 1.78648000e+00
-0.64377800 1.14488000e+00
-0.61377800 6.67169000e-01
-0.58377800 4.26105000e-01
-0.55377800 3.02443000e-01
-0.52377800 2.38155000e-01
-0.49377800 2.03370000e-01
-0.46377800 1.77606000e-01
-0.42575400 1.60476000e-01
-0.39575400 1.55366000e-01
-0.36575400 1.53491000e-01
-0.33575400 1.59011000e-01
-0.30575400 1.63180000e-01
-0.27575400 1.66355000e-01
-0.24575400 1.76316000e-01
-0.21575400 1.96316000e-01
-0.18575400 2.30005000e-01
-0.15575400 2.86222000e-01
-0.12575400 3.85099000e-01
-0.09575420 5.71059000e-01
-0.06575420 9.26102000e-01
-0.03575420 1.37059000e+00
-0.00575418 1.26392000e+00
0.02424580 8.49166000e-01
0.05424580 6.20143000e-01
0.08424580 5.51209000e-01
0.11424600 5.91262000e-01
0.14424600 7.23265000e-01
0.17424600 8.37683000e-01
0.20424600 8.18684000e-01
0.23424600 8.61769000e-01
0.26424600 1.05206000e+00
0.29424600 1.44350000e+00
0.32424600 2.18516000e+00
0.35424600 3.62519000e+00
0.38424600 6.40752000e+00
0.41424600 9.43084000e+00
0.44424600 7.72469000e+00
0.47424600 4.45732000e+00
0.50424600 2.61063000e+00
0.53424600 1.66637000e+00
0.56424600 1.14877000e+00
0.59424600 8.33480000e-01
0.62424600 6.30739000e-01
0.65424600 5.01854000e-01
0.68424600 4.16568000e-01
0.71424600 3.63049000e-01
0.74424600 3.36599000e-01
0.77424600 3.06112000e-01
