# E(MeV)  S_NSDRNSDR(Total=K0+2*K1) for Hs335_DDPCX
-11.56800000 7.74835000e-01
-11.53800000 7.81974000e-01
-11.50800000 7.89280000e-01
-11.47800000 7.96760000e-01
-11.44800000 8.04422000e-01
-11.41800000 8.12279000e-01
-11.38800000 8.20337000e-01
-11.35800000 8.28612000e-01
-11.32800000 8.37116000e-01
-11.29800000 8.45861000e-01
-11.26800000 8.54862000e-01
-11.23800000 8.64138000e-01
-11.20800000 8.73705000e-01
-11.17800000 8.83587000e-01
-11.14800000 8.93808000e-01
-11.11800000 9.04392000e-01
-11.08800000 9.15371000e-01
-11.05800000 9.26783000e-01
-11.02800000 9.38669000e-01
-10.99800000 9.51081000e-01
-10.96800000 9.64082000e-01
-10.93800000 9.77747000e-01
-10.90800000 9.92178000e-01
-10.87800000 1.00750100e+00
-10.84800000 1.02389700e+00
-10.81800000 1.04160500e+00
-10.78800000 1.06098200e+00
-10.75800000 1.08256500e+00
-10.72800000 1.10721800e+00
-10.69800000 1.13639300e+00
-10.66800000 1.17273300e+00
-10.63800000 1.22139500e+00
-10.60800000 1.29332100e+00
-10.57800000 1.41324900e+00
-10.54800000 1.63166700e+00
-10.51800000 1.95312200e+00
-10.48800000 2.01661400e+00
-10.45800000 1.75174200e+00
-10.42800000 1.56589800e+00
-10.39800000 1.48940700e+00
-10.36800000 1.46915200e+00
-10.32990000 1.48419400e+00
-10.29990000 1.51672100e+00
-10.26990000 1.56601300e+00
-10.23990000 1.63718000e+00
-10.20990000 1.74521300e+00
-10.17990000 1.92531600e+00
-10.14990000 2.22205200e+00
-10.11990000 2.44911500e+00
-10.08990000 2.30599100e+00
-10.05990000 2.15895200e+00
-10.02990000 2.13120000e+00
-9.99995000 2.17689200e+00
-9.96995000 2.26910200e+00
-9.93995000 2.40035400e+00
-9.90995000 2.57393000e+00
-9.87995000 2.80172600e+00
-9.84995000 3.10670400e+00
-9.81995000 3.53087000e+00
-9.78995000 4.15370000e+00
-9.75995000 5.13613000e+00
-9.72995000 6.82899000e+00
-9.69995000 1.00273500e+01
-9.66995000 1.61304600e+01
-9.63995000 2.30156800e+01
-9.60995000 1.98394400e+01
-9.57995000 1.29654800e+01
-9.54995000 9.21143000e+00
-9.51995000 7.56167000e+00
-9.48995000 6.90091000e+00
-9.45995000 6.77443000e+00
-9.42995000 7.02864000e+00
-9.39995000 7.60107200e+00
-9.36995000 8.49908400e+00
-9.33995000 9.79107600e+00
-9.30995000 1.16166640e+01
-9.27995000 1.42245880e+01
-9.24995000 1.80568380e+01
-9.21995000 2.39336800e+01
-9.18995000 3.34785740e+01
-9.15995000 5.01566860e+01
-9.12995000 8.18419600e+01
-9.09192000 1.69797020e+02
-9.06192000 2.65706160e+02
-9.03192000 2.37162580e+02
-9.00192000 1.38541080e+02
-8.97192000 7.92952600e+01
-8.94192000 5.01222800e+01
-8.91192000 3.47013000e+01
-8.88192000 2.55744600e+01
-8.85192000 1.93313620e+01
-8.82192000 1.49176380e+01
-8.79192000 1.19460400e+01
-8.76192000 9.90361400e+00
-8.73192000 8.45360600e+00
-8.70192000 7.40087400e+00
-8.67192000 6.63675600e+00
-8.64192000 6.10978400e+00
-8.61192000 5.82096800e+00
-8.58192000 5.81083600e+00
-8.55192000 5.92530000e+00
-8.52192000 5.92334800e+00
-8.49192000 6.37910400e+00
-8.46192000 7.56252800e+00
-8.43192000 7.66804400e+00
-8.40192000 6.11359200e+00
-8.37192000 5.04567200e+00
-8.34192000 4.50065000e+00
-8.31192000 4.09551200e+00
-8.28192000 3.90364000e+00
-8.25192000 3.88990600e+00
-8.22192000 3.79679200e+00
-8.19192000 3.65370200e+00
-8.16192000 3.56988200e+00
-8.13192000 3.56918400e+00
-8.10192000 3.68291000e+00
-8.07192000 3.94606000e+00
-8.04192000 4.40340000e+00
-8.01192000 5.22876000e+00
-7.98192000 6.84513000e+00
-7.95192000 9.53799000e+00
-7.92192000 1.09681800e+01
-7.89192000 8.96494000e+00
-7.85390000 7.53216000e+00
-7.82390000 8.28176000e+00
-7.79390000 8.89363000e+00
-7.76390000 7.55213000e+00
-7.73390000 6.41140000e+00
-7.70390000 6.28435000e+00
-7.67390000 6.90988000e+00
-7.64390000 7.52475000e+00
-7.61390000 8.34682000e+00
-7.58390000 1.05527400e+01
-7.55390000 1.50343400e+01
-7.52390000 1.90556200e+01
-7.49390000 1.57315400e+01
-7.46390000 1.09299500e+01
-7.43390000 8.27851000e+00
-7.40390000 6.99481000e+00
-7.37390000 6.48964000e+00
-7.34390000 6.46031000e+00
-7.31390000 6.77731000e+00
-7.28390000 7.37822000e+00
-7.25390000 8.43234000e+00
-7.22390000 1.02910700e+01
-7.19390000 1.35053100e+01
-7.16390000 1.91248800e+01
-7.13390000 2.73614800e+01
-7.10390000 2.88553200e+01
-7.07390000 2.44670100e+01
-7.04390000 2.41099100e+01
-7.01390000 2.81185700e+01
-6.98390000 3.70783900e+01
-6.95390000 5.33924000e+01
-6.92390000 7.08301000e+01
-6.89390000 8.05924000e+01
-6.86390000 7.42425600e+01
-6.83390000 5.79031300e+01
-6.80390000 4.17443100e+01
-6.77390000 3.37173800e+01
-6.74390000 2.91442000e+01
-6.71390000 2.39159000e+01
-6.68390000 1.98010900e+01
-6.65390000 1.74833400e+01
-6.61588000 1.73912300e+01
-6.58588000 1.92348000e+01
-6.55588000 2.32202700e+01
-6.52588000 3.08280900e+01
-6.49588000 4.55006600e+01
-6.46588000 7.49316000e+01
-6.43588000 1.25784400e+02
-6.40588000 1.52174700e+02
-6.37588000 1.19426700e+02
-6.34588000 7.87511000e+01
-6.31588000 4.82007000e+01
-6.28588000 3.16818000e+01
-6.25588000 2.29776900e+01
-6.22588000 1.81335600e+01
-6.19588000 1.54039800e+01
-6.16588000 1.39891600e+01
-6.13588000 1.36356000e+01
-6.10588000 1.45448100e+01
-6.07588000 1.69754600e+01
-6.04588000 2.07116200e+01
-6.01588000 2.06405800e+01
-5.98588000 1.72644600e+01
-5.95588000 1.58407200e+01
-5.92588000 1.71309700e+01
-5.89588000 2.18418600e+01
-5.86588000 2.92209300e+01
-5.83588000 2.84550100e+01
-5.80588000 2.11569900e+01
-5.77588000 1.70329600e+01
-5.74588000 1.61071900e+01
-5.71588000 1.76883100e+01
-5.68588000 2.13164300e+01
-5.65588000 2.32153300e+01
-5.62588000 2.40270600e+01
-5.59588000 2.92847000e+01
-5.56588000 4.10739600e+01
-5.53588000 5.35212000e+01
-5.50588000 4.93302200e+01
-5.47588000 3.89339000e+01
-5.44588000 3.43958000e+01
-5.41588000 3.49924000e+01
-5.37785000 4.69692000e+01
-5.34785000 6.48727000e+01
-5.31785000 7.16009000e+01
-5.28785000 6.87872000e+01
-5.25785000 5.53929000e+01
-5.22785000 4.31737000e+01
-5.19785000 4.08221000e+01
-5.16785000 4.52713000e+01
-5.13785000 5.24293000e+01
-5.10785000 6.97451100e+01
-5.07785000 9.51025700e+01
-5.04785000 8.69832400e+01
-5.01785000 6.10101700e+01
-4.98785000 4.79763300e+01
-4.95785000 4.55644000e+01
-4.92785000 4.66528000e+01
-4.89785000 4.96317000e+01
-4.86785000 5.35194000e+01
-4.83785000 6.62887000e+01
-4.80785000 8.00056000e+01
-4.77785000 7.11577000e+01
-4.74785000 6.12937000e+01
-4.71785000 6.38348000e+01
-4.68785000 7.77730000e+01
-4.65785000 1.03835200e+02
-4.62785000 1.18930300e+02
-4.59785000 1.07734100e+02
-4.56785000 1.05259600e+02
-4.53785000 1.14422600e+02
-4.50785000 1.32551900e+02
-4.47785000 1.74653400e+02
-4.44785000 2.09656200e+02
-4.41785000 1.83271200e+02
-4.38785000 1.45148800e+02
-4.35785000 1.18462800e+02
-4.32785000 1.12787500e+02
-4.29785000 1.30635800e+02
-4.26785000 1.62548800e+02
-4.23785000 1.79831100e+02
-4.20785000 2.17852500e+02
-4.17785000 3.06119600e+02
-4.13983000 3.44801600e+02
-4.10983000 2.78815700e+02
-4.07983000 2.13062300e+02
-4.04983000 1.98542900e+02
-4.01983000 2.33067600e+02
-3.98983000 2.84347000e+02
-3.95983000 3.52721000e+02
-3.92983000 4.39678000e+02
-3.89983000 4.08311000e+02
-3.86983000 3.26335600e+02
-3.83983000 2.41563800e+02
-3.80983000 1.98872000e+02
-3.77983000 2.11889000e+02
-3.74983000 2.51154800e+02
-3.71983000 2.24522200e+02
-3.68983000 1.73099800e+02
-3.65983000 1.56558200e+02
-3.62983000 1.71475700e+02
-3.59983000 2.06861700e+02
-3.56983000 2.56842300e+02
-3.53983000 2.73327700e+02
-3.50983000 2.70729200e+02
-3.47983000 3.23011400e+02
-3.44983000 4.23220200e+02
-3.41983000 4.87995000e+02
-3.38983000 5.95274000e+02
-3.35983000 7.28445000e+02
-3.32983000 5.77635000e+02
-3.29983000 3.55698000e+02
-3.26983000 2.32344800e+02
-3.23983000 1.73567500e+02
-3.20983000 1.48978100e+02
-3.17983000 1.41595700e+02
-3.14983000 1.42593500e+02
-3.11983000 1.51948900e+02
-3.08983000 1.75897700e+02
-3.05983000 2.14503000e+02
-3.02983000 2.56121200e+02
-2.99983000 2.84367800e+02
-2.96983000 2.65432400e+02
-2.93983000 2.53410900e+02
-2.90180000 2.95395000e+02
-2.87180000 3.62435600e+02
-2.84180000 3.80720800e+02
-2.81180000 3.40970700e+02
-2.78180000 3.25116300e+02
-2.75180000 3.71167400e+02
-2.72180000 5.11800800e+02
-2.69180000 6.96011000e+02
-2.66180000 6.74048000e+02
-2.63180000 5.42952000e+02
-2.60180000 4.90917000e+02
-2.57180000 5.35996000e+02
-2.54180000 6.98388000e+02
-2.51180000 9.09057000e+02
-2.48180000 1.08152700e+03
-2.45180000 1.13882600e+03
-2.42180000 9.89542000e+02
-2.39180000 8.23551000e+02
-2.36180000 8.39213000e+02
-2.33180000 9.21632000e+02
-2.30180000 8.24699000e+02
-2.27180000 7.86515000e+02
-2.24180000 9.74320000e+02
-2.21180000 1.30143800e+03
-2.18180000 1.29988100e+03
-2.15180000 1.21940600e+03
-2.12180000 1.24464000e+03
-2.09180000 1.03869100e+03
-2.06180000 8.63594000e+02
-2.03180000 8.95542000e+02
-2.00180000 9.84313800e+02
-1.97180000 8.61041700e+02
-1.94180000 6.53759200e+02
-1.91180000 4.97907500e+02
-1.88180000 3.85352600e+02
-1.85180000 3.26852800e+02
-1.82180000 2.99936700e+02
-1.79180000 2.60359300e+02
-1.76180000 2.30827100e+02
-1.73180000 2.29882300e+02
-1.70180000 2.64858700e+02
-1.66378000 3.87957000e+02
-1.63378000 5.65246000e+02
-1.60378000 7.25914700e+02
-1.57378000 8.32596000e+02
-1.54378000 8.26373000e+02
-1.51378000 7.11987000e+02
-1.48378000 6.51210000e+02
-1.45378000 6.68905000e+02
-1.42378000 6.40199000e+02
-1.39378000 5.20205000e+02
-1.36378000 3.76687000e+02
-1.33378000 2.90688000e+02
-1.30378000 2.54528000e+02
-1.27378000 2.31844900e+02
-1.24378000 2.44495600e+02
-1.21378000 2.85196400e+02
-1.18378000 2.91623800e+02
-1.15378000 2.61515000e+02
-1.12378000 2.36076300e+02
-1.09378000 2.52272300e+02
-1.06378000 2.93410000e+02
-1.03378000 2.98398000e+02
-1.00378000 3.08166300e+02
-0.97377800 3.31086100e+02
-0.94377800 3.41636400e+02
-0.91377800 3.05895200e+02
-0.88377800 2.90570400e+02
-0.85377800 3.60447400e+02
-0.82377800 5.25980800e+02
-0.79377800 6.55204400e+02
-0.76377800 5.55447300e+02
-0.73377800 4.31660600e+02
-0.70377800 3.26072800e+02
-0.67377800 2.30118600e+02
-0.64377800 1.73659100e+02
-0.61377800 1.49585900e+02
-0.58377800 1.42324100e+02
-0.55377800 1.44154300e+02
-0.52377800 1.35857000e+02
-0.49377800 1.28694200e+02
-0.46377800 1.33150100e+02
-0.42575400 1.77953200e+02
-0.39575400 2.30776700e+02
-0.36575400 2.10929700e+02
-0.33575400 1.71726800e+02
-0.30575400 1.77538900e+02
-0.27575400 2.25529800e+02
-0.24575400 2.77549300e+02
-0.21575400 3.06741700e+02
-0.18575400 2.55009600e+02
-0.15575400 1.72007300e+02
-0.12575400 1.25535000e+02
-0.09575420 1.06792400e+02
-0.06575420 1.03239200e+02
-0.03575420 1.13905100e+02
-0.00575418 1.43229000e+02
0.02424580 1.75497400e+02
0.05424580 1.77670800e+02
0.08424580 1.56251600e+02
0.11424600 1.22989700e+02
0.14424600 9.47634000e+01
0.17424600 8.37495000e+01
0.20424600 8.49200000e+01
0.23424600 8.62506000e+01
0.26424600 8.17008000e+01
0.29424600 8.00085000e+01
0.32424600 9.20262000e+01
0.35424600 1.12682500e+02
0.38424600 1.02511000e+02
0.41424600 8.14381000e+01
0.44424600 7.61475900e+01
0.47424600 8.73388700e+01
0.50424600 1.15579690e+02
0.53424600 1.37978300e+02
0.56424600 1.45182300e+02
0.59424600 1.51275400e+02
0.62424600 1.50511400e+02
0.65424600 1.49647300e+02
0.68424600 1.64702600e+02
0.71424600 2.02704100e+02
0.74424600 1.98367300e+02
0.77424600 1.49266000e+02
