# E(MeV)  S_GAMTGAMT(K=0) for In153_DDPCX
-18.04340000 2.15329000e-03
-18.01340000 2.16190000e-03
-17.98340000 2.17056000e-03
-17.95340000 2.17929000e-03
-17.92340000 2.18807000e-03
-17.89340000 2.19692000e-03
-17.86340000 2.20583000e-03
-17.83340000 2.21481000e-03
-17.80340000 2.22385000e-03
-17.77340000 2.23295000e-03
-17.74340000 2.24213000e-03
-17.71340000 2.25137000e-03
-17.68340000 2.26069000e-03
-17.65340000 2.27008000e-03
-17.62340000 2.27955000e-03
-17.59340000 2.28909000e-03
-17.56340000 2.29872000e-03
-17.53340000 2.30844000e-03
-17.50340000 2.31825000e-03
-17.47340000 2.32817000e-03
-17.44340000 2.33820000e-03
-17.41340000 2.34837000e-03
-17.38340000 2.35870000e-03
-17.35340000 2.36924000e-03
-17.32340000 2.38006000e-03
-17.29340000 2.39128000e-03
-17.26340000 2.40316000e-03
-17.23340000 2.41619000e-03
-17.20340000 2.43145000e-03
-17.17340000 2.45141000e-03
-17.14340000 2.48030000e-03
-17.11340000 2.51086000e-03
-17.08340000 2.51038000e-03
-17.05340000 2.49974000e-03
-17.02340000 2.49853000e-03
-16.99340000 2.50346000e-03
-16.96340000 2.51131000e-03
-16.93340000 2.52061000e-03
-16.90340000 2.53071000e-03
-16.87340000 2.54132000e-03
-16.84340000 2.55225000e-03
-16.81340000 2.56344000e-03
-16.78340000 2.57483000e-03
-16.75340000 2.58639000e-03
-16.72340000 2.59809000e-03
-16.69340000 2.60994000e-03
-16.66340000 2.62191000e-03
-16.63340000 2.63401000e-03
-16.60340000 2.64623000e-03
-16.57340000 2.65857000e-03
-16.54340000 2.67103000e-03
-16.51340000 2.68361000e-03
-16.48340000 2.69631000e-03
-16.45340000 2.70913000e-03
-16.42340000 2.72207000e-03
-16.39340000 2.73514000e-03
-16.36340000 2.74832000e-03
-16.33340000 2.76164000e-03
-16.30340000 2.77507000e-03
-16.27340000 2.78864000e-03
-16.24340000 2.80234000e-03
-16.21340000 2.81617000e-03
-16.15790000 2.84215000e-03
-16.12790000 2.85638000e-03
-16.09790000 2.87074000e-03
-16.06790000 2.88526000e-03
-16.03790000 2.89992000e-03
-16.00790000 2.91474000e-03
-15.97790000 2.92971000e-03
-15.94790000 2.94485000e-03
-15.91790000 2.96016000e-03
-15.88790000 2.97564000e-03
-15.85790000 2.99131000e-03
-15.82790000 3.00717000e-03
-15.79790000 3.02324000e-03
-15.76790000 3.03955000e-03
-15.73790000 3.05611000e-03
-15.70790000 3.07298000e-03
-15.67790000 3.09021000e-03
-15.64790000 3.10793000e-03
-15.61790000 3.12633000e-03
-15.58790000 3.14578000e-03
-15.55790000 3.16707000e-03
-15.52790000 3.19190000e-03
-15.49790000 3.22415000e-03
-15.46790000 3.26923000e-03
-15.43790000 3.30894000e-03
-15.40790000 3.30485000e-03
-15.37790000 3.29645000e-03
-15.34790000 3.30083000e-03
-15.31790000 3.31254000e-03
-15.28790000 3.32778000e-03
-15.25790000 3.34487000e-03
-15.22790000 3.36306000e-03
-15.19790000 3.38200000e-03
-15.16790000 3.40150000e-03
-15.13790000 3.42146000e-03
-15.10790000 3.44182000e-03
-15.07790000 3.46255000e-03
-15.04790000 3.48364000e-03
-15.01790000 3.50508000e-03
-14.98790000 3.52686000e-03
-14.95790000 3.54900000e-03
-14.92790000 3.57149000e-03
-14.89790000 3.59435000e-03
-14.86790000 3.61760000e-03
-14.83790000 3.64124000e-03
-14.80790000 3.66531000e-03
-14.77790000 3.68984000e-03
-14.74790000 3.71489000e-03
-14.71790000 3.74058000e-03
-14.68790000 3.76713000e-03
-14.65790000 3.79469000e-03
-14.62790000 3.82192000e-03
-14.59790000 3.84812000e-03
-14.56790000 3.87519000e-03
-14.53790000 3.90340000e-03
-14.50790000 3.93257000e-03
-14.47790000 3.96265000e-03
-14.44790000 3.99365000e-03
-14.41790000 4.02564000e-03
-14.38790000 4.05872000e-03
-14.35790000 4.09303000e-03
-14.32790000 4.12874000e-03
-14.27230000 4.19930000e-03
-14.24230000 4.24033000e-03
-14.21230000 4.28395000e-03
-14.18230000 4.33072000e-03
-14.15230000 4.38140000e-03
-14.12230000 4.43702000e-03
-14.09230000 4.49902000e-03
-14.06230000 4.56949000e-03
-14.03230000 4.65146000e-03
-14.00230000 4.74957000e-03
-13.97230000 4.87115000e-03
-13.94230000 5.02830000e-03
-13.91230000 5.24202000e-03
-13.88230000 5.55123000e-03
-13.85230000 6.03331000e-03
-13.82230000 6.85472000e-03
-13.79230000 8.39450000e-03
-13.76230000 1.14131000e-02
-13.73230000 1.57338000e-02
-13.70230000 1.55115000e-02
-13.67230000 1.14846000e-02
-13.64230000 8.94104000e-03
-13.61230000 7.46912000e-03
-13.58230000 6.58897000e-03
-13.55230000 6.11106000e-03
-13.52230000 5.85026000e-03
-13.49230000 5.70620000e-03
-13.46230000 5.63013000e-03
-13.43230000 5.59752000e-03
-13.40230000 5.59541000e-03
-13.37230000 5.61411000e-03
-13.34230000 5.64731000e-03
-13.31230000 5.69818000e-03
-13.28230000 5.76912000e-03
-13.25230000 5.86394000e-03
-13.22230000 5.99129000e-03
-13.19230000 6.16837000e-03
-13.16230000 6.42966000e-03
-13.13230000 6.84812000e-03
-13.10230000 7.58845000e-03
-13.07230000 9.01458000e-03
-13.04230000 1.14898000e-02
-13.01230000 1.27894000e-02
-12.98230000 1.06208000e-02
-12.95230000 8.65609000e-03
-12.92230000 7.68808000e-03
-12.89230000 7.24553000e-03
-12.86230000 7.05950000e-03
-12.83230000 7.02079000e-03
-12.80230000 7.09847000e-03
-12.77230000 7.31625000e-03
-12.74230000 7.74044000e-03
-12.71230000 8.43297000e-03
-12.68230000 9.00788000e-03
-12.65230000 8.51446000e-03
-12.62230000 7.90010000e-03
-12.59230000 7.61613000e-03
-12.56230000 7.52561000e-03
-12.53230000 7.53232000e-03
-12.50230000 7.59699000e-03
-12.47230000 7.70975000e-03
-12.44230000 7.88077000e-03
-12.38670000 8.24061000e-03
-12.35670000 8.29546000e-03
-12.32670000 8.40069000e-03
-12.29670000 8.58224000e-03
-12.26670000 8.83800000e-03
-12.23670000 9.19147000e-03
-12.20670000 9.70796000e-03
-12.17670000 1.05399000e-02
-12.14670000 1.20178000e-02
-12.11670000 1.44071000e-02
-12.08670000 1.56901000e-02
-12.05670000 1.46979000e-02
-12.02670000 1.41880000e-02
-11.99670000 1.36019000e-02
-11.96670000 1.32961000e-02
-11.93670000 1.37891000e-02
-11.90670000 1.51625000e-02
-11.87670000 1.78750000e-02
-11.84670000 2.32239000e-02
-11.81670000 3.36664000e-02
-11.78670000 4.62830000e-02
-11.75670000 4.15552000e-02
-11.72670000 2.88425000e-02
-11.69670000 2.15658000e-02
-11.66670000 1.81683000e-02
-11.63670000 1.66732000e-02
-11.60670000 1.62422000e-02
-11.57670000 1.65607000e-02
-11.54670000 1.70732000e-02
-11.51670000 1.74832000e-02
-11.48670000 1.86960000e-02
-11.45670000 2.14774000e-02
-11.42670000 2.70130000e-02
-11.39670000 3.42943000e-02
-11.36670000 3.46744000e-02
-11.33670000 3.20317000e-02
-11.30670000 2.86464000e-02
-11.27670000 2.44622000e-02
-11.24670000 2.23460000e-02
-11.21670000 2.17729000e-02
-11.18670000 2.20911000e-02
-11.15670000 2.30551000e-02
-11.12670000 2.46710000e-02
-11.09670000 2.71688000e-02
-11.06670000 3.11285000e-02
-11.03670000 3.77591000e-02
-11.00670000 4.89340000e-02
-10.97670000 6.13527000e-02
-10.94670000 6.61913000e-02
-10.91670000 6.73773000e-02
-10.88670000 6.96451000e-02
-10.85670000 8.43282000e-02
-10.82670000 1.17841000e-01
-10.79670000 1.57832000e-01
-10.76670000 1.83951000e-01
-10.73670000 2.35438000e-01
-10.70670000 2.44022000e-01
-10.67670000 1.80750000e-01
-10.64670000 1.46986000e-01
-10.61670000 1.51149000e-01
-10.58670000 1.68277000e-01
-10.55670000 2.06193000e-01
-10.50110000 2.07497000e-01
-10.47110000 1.49097000e-01
-10.44110000 1.23112000e-01
-10.41110000 1.27316000e-01
-10.38110000 1.64008000e-01
-10.35110000 2.35965000e-01
-10.32110000 2.61056000e-01
-10.29110000 1.93225000e-01
-10.26110000 1.40949000e-01
-10.23110000 1.14519000e-01
-10.20110000 9.43135000e-02
-10.17110000 8.34414000e-02
-10.14110000 7.73473000e-02
-10.11110000 7.23555000e-02
-10.08110000 7.02629000e-02
-10.05110000 7.18437000e-02
-10.02110000 7.72296000e-02
-9.99114000 8.67739000e-02
-9.96114000 9.40735000e-02
-9.93114000 9.47973000e-02
-9.90114000 9.83591000e-02
-9.87114000 1.07243000e-01
-9.84114000 1.22017000e-01
-9.81114000 1.45067000e-01
-9.78114000 1.82468000e-01
-9.75114000 2.47597000e-01
-9.72114000 3.62669000e-01
-9.69114000 5.31058000e-01
-9.66114000 5.84124000e-01
-9.63114000 4.77354000e-01
-9.60114000 4.37498000e-01
-9.57114000 5.04110000e-01
-9.54114000 7.04160000e-01
-9.51114000 1.07356000e+00
-9.48114000 1.31218000e+00
-9.45114000 1.19723000e+00
-9.42114000 1.14921000e+00
-9.39114000 1.37005000e+00
-9.36114000 1.49098000e+00
-9.33114000 1.25375000e+00
-9.30114000 1.14062000e+00
-9.27114000 1.32800000e+00
-9.24114000 1.74381000e+00
-9.21114000 1.73315000e+00
-9.18114000 1.27498000e+00
-9.15114000 1.00309000e+00
-9.12114000 9.63675000e-01
-9.09114000 1.10563000e+00
-9.06114000 1.44313000e+00
-9.03114000 2.10919000e+00
-9.00114000 3.46001000e+00
-8.97114000 5.39865000e+00
-8.94114000 5.78823000e+00
-8.91114000 4.65769000e+00
-8.88114000 3.36916000e+00
-8.85114000 2.91196000e+00
-8.82114000 3.29386000e+00
-8.79114000 4.65244000e+00
-8.76114000 6.03799000e+00
-8.73114000 4.97574000e+00
-8.70114000 3.28008000e+00
-8.67114000 1.99681000e+00
-8.61558000 9.13886000e-01
-8.58558000 6.68320000e-01
-8.55558000 5.20132000e-01
-8.52558000 4.30388000e-01
-8.49558000 3.84970000e-01
-8.46558000 3.81798000e-01
-8.43558000 3.85273000e-01
-8.40558000 3.27262000e-01
-8.37558000 2.56485000e-01
-8.34558000 2.01705000e-01
-8.31558000 1.66729000e-01
-8.28558000 1.44781000e-01
-8.25558000 1.29506000e-01
-8.22558000 1.16226000e-01
-8.19558000 1.05225000e-01
-8.16558000 9.46476000e-02
-8.13558000 8.54944000e-02
-8.10558000 7.78632000e-02
-8.07558000 7.15760000e-02
-8.04558000 6.63522000e-02
-8.01558000 6.19007000e-02
-7.98558000 5.80432000e-02
-7.95558000 5.46727000e-02
-7.92558000 5.17274000e-02
-7.89558000 4.91885000e-02
-7.86558000 4.70984000e-02
-7.83558000 4.55615000e-02
-7.80558000 4.44087000e-02
-7.77558000 4.23982000e-02
-7.74558000 3.99522000e-02
-7.71558000 3.80685000e-02
-7.68558000 3.67154000e-02
-7.65558000 3.55549000e-02
-7.62558000 3.41307000e-02
-7.59558000 3.28123000e-02
-7.56558000 3.17546000e-02
-7.53558000 3.09022000e-02
-7.50558000 3.02306000e-02
-7.47558000 2.97561000e-02
-7.44558000 2.95395000e-02
-7.41558000 2.97185000e-02
-7.38558000 3.05976000e-02
-7.35558000 3.28743000e-02
-7.32558000 3.79999000e-02
-7.29558000 4.62422000e-02
-7.26558000 4.69695000e-02
-7.23558000 3.92035000e-02
-7.20558000 3.48286000e-02
-7.17558000 3.37281000e-02
-7.14558000 3.27590000e-02
-7.11558000 3.32089000e-02
-7.08558000 3.56240000e-02
-7.05558000 3.50575000e-02
-7.02558000 3.03389000e-02
-6.99558000 2.67050000e-02
-6.96558000 2.44373000e-02
-6.93558000 2.29973000e-02
-6.90558000 2.22380000e-02
-6.87558000 2.18677000e-02
-6.84558000 2.15864000e-02
-6.81558000 2.16055000e-02
-6.78558000 2.17369000e-02
-6.73001000 2.13815000e-02
-6.70001000 2.20875000e-02
-6.67001000 2.31830000e-02
-6.64001000 2.25118000e-02
-6.61001000 2.09919000e-02
-6.58001000 2.01107000e-02
-6.55001000 1.97147000e-02
-6.52001000 1.95935000e-02
-6.49001000 1.96039000e-02
-6.46001000 1.96702000e-02
-6.43001000 1.98565000e-02
-6.40001000 2.02950000e-02
-6.37001000 2.11072000e-02
-6.34001000 2.18834000e-02
-6.31001000 2.20380000e-02
-6.28001000 2.25577000e-02
-6.25001000 2.40443000e-02
-6.22001000 2.66779000e-02
-6.19001000 2.91767000e-02
-6.16001000 2.99996000e-02
-6.13001000 3.12404000e-02
-6.10001000 3.47771000e-02
-6.07001000 4.24501000e-02
-6.04001000 5.85270000e-02
-6.01001000 8.91401000e-02
-5.98001000 1.22380000e-01
-5.95001000 1.09841000e-01
-5.92001000 7.26088000e-02
-5.89001000 4.95456000e-02
-5.86001000 3.79415000e-02
-5.83001000 3.20670000e-02
-5.80001000 2.88972000e-02
-5.77001000 2.70820000e-02
-5.74001000 2.62165000e-02
-5.71001000 2.56676000e-02
-5.68001000 2.56081000e-02
-5.65001000 2.66216000e-02
-5.62001000 2.91035000e-02
-5.59001000 3.18642000e-02
-5.56001000 3.19820000e-02
-5.53001000 2.92335000e-02
-5.50001000 2.72854000e-02
-5.47001000 2.67415000e-02
-5.44001000 2.70856000e-02
-5.41001000 2.80654000e-02
-5.38001000 2.95829000e-02
-5.35001000 3.17926000e-02
-5.32001000 3.48581000e-02
-5.29001000 3.87675000e-02
-5.26001000 4.05670000e-02
-5.23001000 4.10929000e-02
-5.20001000 4.41234000e-02
-5.17001000 5.06331000e-02
-5.14001000 6.24683000e-02
-5.11001000 8.24972000e-02
-5.08001000 1.03508000e-01
-5.05001000 1.15059000e-01
-5.02001000 1.41674000e-01
-4.99001000 2.09623000e-01
-4.96001000 3.48119000e-01
-4.93001000 4.91884000e-01
-4.90001000 4.09556000e-01
-4.84444000 1.74631000e-01
-4.81444000 1.27574000e-01
-4.78444000 1.08091000e-01
-4.75444000 1.07499000e-01
-4.72444000 1.11917000e-01
-4.69444000 1.15828000e-01
-4.66444000 1.21819000e-01
-4.63444000 1.33709000e-01
-4.60444000 1.51035000e-01
-4.57444000 1.26672000e-01
-4.54444000 9.24260000e-02
-4.51444000 7.65187000e-02
-4.48444000 7.49245000e-02
-4.45444000 8.19807000e-02
-4.42444000 7.92549000e-02
-4.39444000 6.71088000e-02
-4.36444000 5.86924000e-02
-4.33444000 5.61762000e-02
-4.30444000 5.87469000e-02
-4.27444000 6.75619000e-02
-4.24444000 8.64693000e-02
-4.21444000 1.14855000e-01
-4.18444000 1.18665000e-01
-4.15444000 9.47812000e-02
-4.12444000 7.65342000e-02
-4.09444000 6.58311000e-02
-4.06444000 6.15893000e-02
-4.03444000 6.05580000e-02
-4.00444000 6.11720000e-02
-3.97444000 6.38042000e-02
-3.94444000 6.84766000e-02
-3.91444000 7.57231000e-02
-3.88444000 8.47392000e-02
-3.85444000 9.80611000e-02
-3.82444000 1.21045000e-01
-3.79444000 1.62712000e-01
-3.76444000 2.15397000e-01
-3.73444000 2.16391000e-01
-3.70444000 1.96123000e-01
-3.67444000 2.06437000e-01
-3.64444000 2.53785000e-01
-3.61444000 3.52791000e-01
-3.58444000 5.44731000e-01
-3.55444000 8.92525000e-01
-3.52444000 1.17271000e+00
-3.49444000 9.11007000e-01
-3.46444000 6.00020000e-01
-3.43444000 4.51860000e-01
-3.40444000 3.68011000e-01
-3.37444000 3.40850000e-01
-3.34444000 3.87857000e-01
-3.31444000 4.81936000e-01
-3.28444000 5.09260000e-01
-3.25444000 5.51639000e-01
-3.22444000 6.88680000e-01
-3.19444000 6.84149000e-01
-3.16444000 5.09719000e-01
-3.13444000 3.89903000e-01
-3.10444000 3.30380000e-01
-3.07444000 3.14247000e-01
-3.04444000 3.09094000e-01
-3.01444000 3.30088000e-01
-2.95887000 5.03379000e-01
-2.92887000 7.46400000e-01
-2.89887000 1.21866000e+00
-2.86887000 1.80591000e+00
-2.83887000 1.64959000e+00
-2.80887000 1.14341000e+00
-2.77887000 9.36913000e-01
-2.74887000 9.77296000e-01
-2.71887000 1.08911000e+00
-2.68887000 1.17080000e+00
-2.65887000 1.05779000e+00
-2.62887000 1.03746000e+00
-2.59887000 1.22544000e+00
-2.56887000 1.64824000e+00
-2.53887000 2.23482000e+00
-2.50887000 2.41548000e+00
-2.47887000 2.54964000e+00
-2.44887000 3.24464000e+00
-2.41887000 3.62113000e+00
-2.38887000 3.56172000e+00
-2.35887000 2.89599000e+00
-2.32887000 1.87060000e+00
-2.29887000 1.24090000e+00
-2.26887000 9.55986000e-01
-2.23887000 9.11644000e-01
-2.20887000 9.50498000e-01
-2.17887000 8.02752000e-01
-2.14887000 6.03130000e-01
-2.11887000 5.08935000e-01
-2.08887000 5.02708000e-01
-2.05887000 5.46279000e-01
-2.02887000 6.76322000e-01
-1.99887000 9.04219000e-01
-1.96887000 1.06125000e+00
-1.93887000 1.05653000e+00
-1.90887000 8.78828000e-01
-1.87887000 6.23718000e-01
-1.84887000 4.75955000e-01
-1.81887000 3.70548000e-01
-1.78887000 3.08928000e-01
-1.75887000 2.82320000e-01
-1.72887000 2.80908000e-01
-1.69887000 3.11665000e-01
-1.66887000 3.87547000e-01
-1.63887000 5.28945000e-01
-1.60887000 7.37968000e-01
-1.57887000 8.36246000e-01
-1.54887000 7.07104000e-01
-1.51887000 6.14934000e-01
-1.48887000 6.05386000e-01
-1.45887000 6.26277000e-01
-1.42887000 5.12154000e-01
-1.39887000 4.12088000e-01
-1.36887000 3.98497000e-01
-1.33887000 4.22553000e-01
-1.30887000 4.15398000e-01
-1.27887000 4.23883000e-01
-1.24887000 5.05623000e-01
-1.21887000 6.58813000e-01
-1.18887000 7.31906000e-01
-1.15887000 6.91058000e-01
-1.12887000 6.59437000e-01
-1.07330000 8.33199000e-01
-1.04330000 9.97228000e-01
-1.01330000 1.19702000e+00
-0.98329900 1.15552000e+00
-0.95329900 8.23162000e-01
-0.92329900 5.84178000e-01
-0.89329900 4.87195000e-01
-0.86329900 4.74940000e-01
-0.83329900 5.24661000e-01
-0.80329900 6.28641000e-01
-0.77329900 6.93975000e-01
-0.74329900 8.03247000e-01
-0.71329900 1.07886000e+00
-0.68329900 1.33405000e+00
-0.65329900 1.41036000e+00
-0.62329900 1.38286000e+00
-0.59329900 1.43972000e+00
-0.56329900 1.46898000e+00
-0.53329900 1.71887000e+00
-0.50329900 1.80621000e+00
-0.47329900 1.34602000e+00
-0.44329900 9.44842000e-01
-0.41329900 7.53721000e-01
-0.38329900 7.18178000e-01
-0.35329900 7.87715000e-01
-0.32329900 9.22238000e-01
-0.29329900 9.07703000e-01
-0.26329900 7.82355000e-01
-0.23329900 7.63857000e-01
-0.20329900 8.60922000e-01
-0.17329900 9.90781000e-01
-0.14329900 1.12693000e+00
-0.11329900 1.45254000e+00
-0.08329910 2.11128000e+00
-0.05329910 2.71858000e+00
-0.02329910 2.75428000e+00
0.00670085 3.06781000e+00
0.03670090 3.66277000e+00
0.06670090 3.57409000e+00
0.09670090 2.90236000e+00
0.12670100 2.58627000e+00
0.15670100 2.87195000e+00
0.18670100 3.71375000e+00
0.21670100 5.36944000e+00
0.24670100 7.19771000e+00
0.27670100 7.33670000e+00
0.30670100 6.17214000e+00
0.33670100 5.58590000e+00
0.36670100 4.89070000e+00
0.39670100 4.51728000e+00
0.42670100 5.30943000e+00
0.45670100 6.40039000e+00
0.48670100 6.90330000e+00
0.51670100 8.19127000e+00
0.54670100 9.24462000e+00
0.57670100 7.54606000e+00
0.60670100 5.95470000e+00
0.63670100 5.82984000e+00
0.66670100 6.37805000e+00
0.69670100 5.79018000e+00
0.72670100 4.31151000e+00
0.75670100 3.66312000e+00
