# E(MeV)  S_GAMTGAMT(Total=K0+2*K1) for Lr300_DDPCX
-9.49055000 7.82935000e-03
-9.46055000 8.01486000e-03
-9.43055000 8.15989000e-03
-9.40055000 8.27776000e-03
-9.37055000 8.37643000e-03
-9.34055000 8.46070000e-03
-9.31055000 8.53331000e-03
-9.28055000 8.59502000e-03
-9.25055000 8.64393000e-03
-9.22055000 8.67310000e-03
-9.19055000 8.67008000e-03
-9.16055000 8.66388000e-03
-9.13055000 8.75622000e-03
-9.10055000 8.87294000e-03
-9.07055000 8.95832000e-03
-9.04055000 9.02387000e-03
-9.01055000 9.07970000e-03
-8.98055000 9.13042000e-03
-8.95055000 9.17817000e-03
-8.92055000 9.22400000e-03
-8.89055000 9.26854000e-03
-8.86055000 9.31212000e-03
-8.83055000 9.35497000e-03
-8.80055000 9.39726000e-03
-8.77055000 9.43909000e-03
-8.74055000 9.48055000e-03
-8.71055000 9.52171000e-03
-8.68055000 9.56262000e-03
-8.65055000 9.60333000e-03
-8.62055000 9.64383000e-03
-8.59055000 9.68418000e-03
-8.56055000 9.72435000e-03
-8.53055000 9.76436000e-03
-8.50055000 9.80416000e-03
-8.46027000 9.85720000e-03
-8.43027000 9.89623000e-03
-8.40027000 9.93460000e-03
-8.37027000 9.97182000e-03
-8.34027000 1.00069400e-02
-8.31027000 1.00377900e-02
-8.28027000 1.00595600e-02
-8.25027000 1.00643400e-02
-8.22027000 1.00690500e-02
-8.19027000 1.01324000e-02
-8.16027000 1.02098300e-02
-8.13027000 1.02696600e-02
-8.10027000 1.03173200e-02
-8.07027000 1.03572700e-02
-8.04027000 1.03902100e-02
-8.01027000 1.04132700e-02
-7.98027000 1.04181800e-02
-7.95027000 1.03850500e-02
-7.92027000 1.02816100e-02
-7.89027000 1.01796500e-02
-7.86027000 1.03183500e-02
-7.83027000 1.05078100e-02
-7.80027000 1.06312700e-02
-7.77027000 1.07275900e-02
-7.74027000 1.07978400e-02
-7.71027000 1.08427400e-02
-7.68027000 1.08561100e-02
-7.65027000 1.08212500e-02
-7.62027000 1.08101700e-02
-7.59027000 1.10431500e-02
-7.56027000 1.14066900e-02
-7.53027000 1.16818500e-02
-7.50027000 1.16286500e-02
-7.47027000 1.15294200e-02
-7.42999000 1.15310600e-02
-7.39999000 1.16095500e-02
-7.36999000 1.17562100e-02
-7.33999000 1.18996400e-02
-7.30999000 1.19120900e-02
-7.27999000 1.19471800e-02
-7.24999000 1.19698600e-02
-7.21999000 1.19180600e-02
-7.18999000 1.19007500e-02
-7.15999000 1.19252000e-02
-7.12999000 1.19756700e-02
-7.09999000 1.20475500e-02
-7.06999000 1.21462800e-02
-7.03999000 1.22906300e-02
-7.00999000 1.25231300e-02
-6.97999000 1.29122500e-02
-6.94999000 1.34819900e-02
-6.91999000 1.36498700e-02
-6.88999000 1.31710400e-02
-6.85999000 1.28226800e-02
-6.82999000 1.26738200e-02
-6.79999000 1.26242300e-02
-6.76999000 1.26217100e-02
-6.73999000 1.26433600e-02
-6.70999000 1.26787100e-02
-6.67999000 1.27225200e-02
-6.64999000 1.27720800e-02
-6.61999000 1.28258200e-02
-6.58999000 1.28829500e-02
-6.55999000 1.29429800e-02
-6.52999000 1.30057400e-02
-6.49999000 1.30712000e-02
-6.46999000 1.31395100e-02
-6.43999000 1.32109700e-02
-6.39971000 1.33127600e-02
-6.36971000 1.33939000e-02
-6.33971000 1.34809000e-02
-6.30971000 1.35755500e-02
-6.27971000 1.36804800e-02
-6.24971000 1.37999000e-02
-6.21971000 1.39406400e-02
-6.18971000 1.41143500e-02
-6.15971000 1.43423900e-02
-6.12971000 1.46664400e-02
-6.09971000 1.51748500e-02
-6.06971000 1.60675400e-02
-6.03971000 1.77715000e-02
-6.00971000 2.05060300e-02
-5.97971000 2.12394900e-02
-5.94971000 1.87601600e-02
-5.91971000 1.69125000e-02
-5.88971000 1.60392500e-02
-5.85971000 1.56548700e-02
-5.82971000 1.55083200e-02
-5.79971000 1.54926400e-02
-5.76971000 1.55627900e-02
-5.73971000 1.57025900e-02
-5.70971000 1.59129800e-02
-5.67971000 1.62099800e-02
-5.64971000 1.66299900e-02
-5.61971000 1.72456100e-02
-5.58971000 1.82045300e-02
-5.55971000 1.98206500e-02
-5.52971000 2.27583700e-02
-5.49971000 2.80160800e-02
-5.46971000 3.40026000e-02
-5.43971000 3.59271000e-02
-5.40971000 3.56296000e-02
-5.36942000 3.40291600e-02
-5.33942000 2.90015100e-02
-5.30942000 2.63741300e-02
-5.27942000 2.37643900e-02
-5.24942000 2.13628800e-02
-5.21942000 2.01496400e-02
-5.18942000 1.98069600e-02
-5.15942000 2.01395700e-02
-5.12942000 2.12947400e-02
-5.09942000 2.39100500e-02
-5.06942000 2.88474900e-02
-5.03942000 3.21600600e-02
-5.00942000 2.79385500e-02
-4.97942000 2.36963100e-02
-4.94942000 2.17170800e-02
-4.91942000 2.10254500e-02
-4.88942000 2.11472200e-02
-4.85942000 2.13932400e-02
-4.82942000 2.16912900e-02
-4.79942000 2.28809400e-02
-4.76942000 2.49747700e-02
-4.73942000 2.47146500e-02
-4.70942000 2.28975200e-02
-4.67942000 2.23735100e-02
-4.64942000 2.33706300e-02
-4.61942000 2.51210900e-02
-4.58942000 2.45949200e-02
-4.55942000 2.28538000e-02
-4.52942000 2.21433300e-02
-4.49942000 2.23829900e-02
-4.46942000 2.35111700e-02
-4.43942000 2.60429200e-02
-4.40942000 3.06882800e-02
-4.37942000 3.57640500e-02
-4.33914000 3.15603500e-02
-4.30914000 2.67253200e-02
-4.27914000 2.42362500e-02
-4.24914000 2.31657900e-02
-4.21914000 2.28174300e-02
-4.18914000 2.28330700e-02
-4.15914000 2.30811900e-02
-4.12914000 2.36811900e-02
-4.09914000 2.47788800e-02
-4.06914000 2.65937200e-02
-4.03914000 2.94621800e-02
-4.00914000 3.40659000e-02
-3.97914000 3.88941800e-02
-3.94914000 4.42170800e-02
-3.91914000 5.38936800e-02
-3.88914000 6.85555000e-02
-3.85914000 6.69096000e-02
-3.82914000 5.23061000e-02
-3.79914000 4.27387000e-02
-3.76914000 3.92671000e-02
-3.73914000 4.10058000e-02
-3.70914000 4.60950000e-02
-3.67914000 4.59293000e-02
-3.64914000 3.90163000e-02
-3.61914000 3.43094000e-02
-3.58914000 3.27408800e-02
-3.55914000 3.29977600e-02
-3.52914000 3.53604400e-02
-3.49914000 3.98830800e-02
-3.46914000 4.63642200e-02
-3.43914000 5.12455800e-02
-3.40914000 4.82371000e-02
-3.37914000 4.57439000e-02
-3.34914000 4.56494000e-02
-3.30886000 3.94089000e-02
-3.27886000 3.59134000e-02
-3.24886000 3.49451000e-02
-3.21886000 3.63450000e-02
-3.18886000 3.98271000e-02
-3.15886000 4.44998000e-02
-3.12886000 4.52707000e-02
-3.09886000 4.40074000e-02
-3.06886000 4.46868000e-02
-3.03886000 4.65462000e-02
-3.00886000 5.25228000e-02
-2.97886000 6.52450000e-02
-2.94886000 7.56797000e-02
-2.91886000 6.94645000e-02
-2.88886000 5.84535000e-02
-2.85886000 5.22852000e-02
-2.82886000 5.11681000e-02
-2.79886000 5.60725000e-02
-2.76886000 6.47856000e-02
-2.73886000 6.80530000e-02
-2.70886000 7.21391000e-02
-2.67886000 8.06583000e-02
-2.64886000 8.78202000e-02
-2.61886000 1.06441300e-01
-2.58886000 1.21688400e-01
-2.55886000 1.14225500e-01
-2.52886000 1.02304900e-01
-2.49886000 8.88151000e-02
-2.46886000 8.37406000e-02
-2.43886000 8.42596000e-02
-2.40886000 8.78953000e-02
-2.37886000 9.81019000e-02
-2.34886000 1.09924600e-01
-2.31886000 1.08398800e-01
-2.27858000 1.18343200e-01
-2.24858000 1.39821200e-01
-2.21858000 1.42240600e-01
-2.18858000 1.33731900e-01
-2.15858000 1.23117300e-01
-2.12858000 1.14425000e-01
-2.09858000 1.12918700e-01
-2.06858000 1.13776600e-01
-2.03858000 9.72146000e-02
-2.00858000 8.29129000e-02
-1.97858000 8.19027000e-02
-1.94858000 9.22388000e-02
-1.91858000 1.01024600e-01
-1.88858000 9.83849000e-02
-1.85858000 9.75578000e-02
-1.82858000 1.07313100e-01
-1.79858000 1.27878100e-01
-1.76858000 1.26954900e-01
-1.73858000 1.08512500e-01
-1.70858000 9.98479000e-02
-1.67858000 1.01270400e-01
-1.64858000 1.09707700e-01
-1.61858000 1.12711100e-01
-1.58858000 1.25658300e-01
-1.55858000 1.61684000e-01
-1.52858000 2.11836000e-01
-1.49858000 2.34353000e-01
-1.46858000 1.96051200e-01
-1.43858000 1.52545000e-01
-1.40858000 1.40550300e-01
-1.37858000 1.50787600e-01
-1.34858000 1.64074100e-01
-1.31858000 1.67395600e-01
-1.28858000 1.40693100e-01
-1.24829000 1.13975200e-01
-1.21829000 1.12919900e-01
-1.18829000 1.12842600e-01
-1.15829000 1.11167400e-01
-1.12829000 1.17270800e-01
-1.09829000 1.34458400e-01
-1.06829000 1.59685500e-01
-1.03829000 1.88489000e-01
-1.00829000 2.20487500e-01
-0.97829500 2.78880000e-01
-0.94829500 3.92365300e-01
-0.91829500 4.73849800e-01
-0.88829500 4.15414000e-01
-0.85829500 3.08713500e-01
-0.82829500 2.37404300e-01
-0.79829500 2.14624300e-01
-0.76829500 2.09219600e-01
-0.73829500 2.23560000e-01
-0.70829500 2.77569600e-01
-0.67829500 3.45857800e-01
-0.64829500 3.97031000e-01
-0.61829500 3.92007000e-01
-0.58829500 3.40688400e-01
-0.55829500 2.69671600e-01
-0.52829500 2.09456900e-01
-0.49829500 1.82985500e-01
-0.46829500 1.81490200e-01
-0.43829500 2.02660800e-01
-0.40829500 2.50759800e-01
-0.37829500 3.07834000e-01
-0.34829500 3.47767000e-01
-0.31829500 3.54780000e-01
-0.28829500 3.50934000e-01
-0.25829500 3.23531000e-01
-0.21801200 2.84622800e-01
-0.18801200 3.02462200e-01
-0.15801200 3.74202200e-01
-0.12801200 4.96724000e-01
-0.09801230 5.46393800e-01
-0.06801230 5.04325800e-01
-0.03801230 5.16264800e-01
-0.00801227 6.32971200e-01
0.02198770 8.24655400e-01
0.05198770 1.04462500e+00
0.08198770 1.42380200e+00
0.11198800 1.93146800e+00
0.14198800 2.28086800e+00
0.17198800 2.27752400e+00
0.20198800 1.88641000e+00
0.23198800 1.29333200e+00
0.26198800 8.56536000e-01
0.29198800 6.19679000e-01
0.32198800 5.12576200e-01
0.35198800 4.84407000e-01
0.38198800 5.26613000e-01
0.41198800 6.67308000e-01
0.44198800 9.07455000e-01
0.47198800 9.63674000e-01
0.50198800 7.74679000e-01
0.53198800 6.00281000e-01
0.56198800 4.91863000e-01
0.59198800 4.60520800e-01
0.62198800 4.93110800e-01
0.65198800 5.68052800e-01
0.68198800 5.93588800e-01
0.71198800 5.79986800e-01
0.74198800 6.34326800e-01
0.77198800 7.75957400e-01
