# E(MeV)  S_GAMTGAMT(K=1) for Lr300_DDPCX
-9.49055000 2.55613000e-03
-9.46055000 2.62884000e-03
-9.43055000 2.68524000e-03
-9.40055000 2.73061000e-03
-9.37055000 2.76811000e-03
-9.34055000 2.79963000e-03
-9.31055000 2.82620000e-03
-9.28055000 2.84798000e-03
-9.25055000 2.86386000e-03
-9.22055000 2.87026000e-03
-9.19055000 2.86087000e-03
-9.16055000 2.85014000e-03
-9.13055000 2.88888000e-03
-9.10055000 2.93997000e-03
-9.07055000 2.97553000e-03
-9.04055000 3.00128000e-03
-9.01055000 3.02227000e-03
-8.98055000 3.04078000e-03
-8.95055000 3.05787000e-03
-8.92055000 3.07406000e-03
-8.89055000 3.08965000e-03
-8.86055000 3.10480000e-03
-8.83055000 3.11962000e-03
-8.80055000 3.13419000e-03
-8.77055000 3.14856000e-03
-8.74055000 3.16277000e-03
-8.71055000 3.17685000e-03
-8.68055000 3.19083000e-03
-8.65055000 3.20473000e-03
-8.62055000 3.21856000e-03
-8.59055000 3.23234000e-03
-8.56055000 3.24608000e-03
-8.53055000 3.25979000e-03
-8.50055000 3.27348000e-03
-8.46027000 3.29185000e-03
-8.43027000 3.30553000e-03
-8.40027000 3.31921000e-03
-8.37027000 3.33290000e-03
-8.34027000 3.34660000e-03
-8.31027000 3.36031000e-03
-8.28027000 3.37405000e-03
-8.25027000 3.38779000e-03
-8.22027000 3.40153000e-03
-8.19027000 3.41525000e-03
-8.16027000 3.42906000e-03
-8.13027000 3.44306000e-03
-8.10027000 3.45707000e-03
-8.07027000 3.47105000e-03
-8.04027000 3.48501000e-03
-8.01027000 3.49892000e-03
-7.98027000 3.51274000e-03
-7.95027000 3.52636000e-03
-7.92027000 3.53956000e-03
-7.89027000 3.55185000e-03
-7.86027000 3.56216000e-03
-7.83027000 3.56940000e-03
-7.80027000 3.57948000e-03
-7.77027000 3.59781000e-03
-7.74027000 3.61322000e-03
-7.71027000 3.62081000e-03
-7.68027000 3.61514000e-03
-7.65027000 3.58671000e-03
-7.62027000 3.57093000e-03
-7.59027000 3.67757000e-03
-7.56027000 3.84965000e-03
-7.53027000 3.97752000e-03
-7.50027000 3.94100000e-03
-7.47027000 3.88105000e-03
-7.42999000 3.86672000e-03
-7.39999000 3.89290000e-03
-7.36999000 3.95012000e-03
-7.33999000 3.99948000e-03
-7.30999000 3.97033000e-03
-7.27999000 3.93560000e-03
-7.24999000 3.92465000e-03
-7.21999000 3.92713000e-03
-7.18999000 3.93603000e-03
-7.15999000 3.94828000e-03
-7.12999000 3.96251000e-03
-7.09999000 3.97815000e-03
-7.06999000 3.99512000e-03
-7.03999000 4.01386000e-03
-7.00999000 4.03513000e-03
-6.97999000 4.05579000e-03
-6.94999000 4.06953000e-03
-6.91999000 4.08290000e-03
-6.88999000 4.09864000e-03
-6.85999000 4.11583000e-03
-6.82999000 4.13386000e-03
-6.79999000 4.15246000e-03
-6.76999000 4.17152000e-03
-6.73999000 4.19099000e-03
-6.70999000 4.21088000e-03
-6.67999000 4.23120000e-03
-6.64999000 4.25198000e-03
-6.61999000 4.27325000e-03
-6.58999000 4.29508000e-03
-6.55999000 4.31753000e-03
-6.52999000 4.34071000e-03
-6.49999000 4.36473000e-03
-6.46999000 4.38975000e-03
-6.43999000 4.41598000e-03
-6.39971000 4.45361000e-03
-6.36971000 4.48396000e-03
-6.33971000 4.51695000e-03
-6.30971000 4.55349000e-03
-6.27971000 4.59489000e-03
-6.24971000 4.64325000e-03
-6.21971000 4.70196000e-03
-6.18971000 4.77684000e-03
-6.15971000 4.87853000e-03
-6.12971000 5.02784000e-03
-6.09971000 5.26890000e-03
-6.06971000 5.70161000e-03
-6.03971000 6.53940000e-03
-6.00971000 7.89182000e-03
-5.97971000 8.24293000e-03
-5.94971000 6.98672000e-03
-5.91971000 6.04521000e-03
-5.88971000 5.58950000e-03
-5.85971000 5.37644000e-03
-5.82971000 5.27999000e-03
-5.79971000 5.24593000e-03
-5.76971000 5.25065000e-03
-5.73971000 5.28442000e-03
-5.70971000 5.34514000e-03
-5.67971000 5.43665000e-03
-5.64971000 5.56998000e-03
-5.61971000 5.76842000e-03
-5.58971000 6.08050000e-03
-5.55971000 6.60990000e-03
-5.52971000 7.56868000e-03
-5.49971000 9.19309000e-03
-5.46971000 1.04620000e-02
-5.43971000 1.06805000e-02
-5.40971000 1.21349000e-02
-5.36942000 1.29963000e-02
-5.33942000 1.10246000e-02
-5.30942000 9.98743000e-03
-5.27942000 8.83198000e-03
-5.24942000 7.71527000e-03
-5.21942000 7.15799000e-03
-5.18942000 7.01270000e-03
-5.15942000 7.18746000e-03
-5.12942000 7.76379000e-03
-5.09942000 9.07194000e-03
-5.06942000 1.15362000e-02
-5.03942000 1.31772000e-02
-5.00942000 1.10389000e-02
-4.97942000 8.87209000e-03
-4.94942000 7.80266000e-03
-4.91942000 7.31342000e-03
-4.88942000 7.20799000e-03
-4.85942000 7.37309000e-03
-4.82942000 7.64585000e-03
-4.79942000 8.29350000e-03
-4.76942000 9.33961000e-03
-4.73942000 9.17189000e-03
-4.70942000 8.18507000e-03
-4.67942000 7.77627000e-03
-4.64942000 8.00066000e-03
-4.61942000 8.52411000e-03
-4.58942000 8.29332000e-03
-4.55942000 7.69987000e-03
-4.52942000 7.48199000e-03
-4.49942000 7.60619000e-03
-4.46942000 8.06636000e-03
-4.43942000 9.09017000e-03
-4.40942000 1.10027000e-02
-4.37942000 1.33170000e-02
-4.33914000 1.16388000e-02
-4.30914000 9.41357000e-03
-4.27914000 8.20791000e-03
-4.24914000 7.62186000e-03
-4.21914000 7.33565000e-03
-4.18914000 7.20542000e-03
-4.15914000 7.17190000e-03
-4.12914000 7.21776000e-03
-4.09914000 7.35344000e-03
-4.06914000 7.57316000e-03
-4.03914000 7.80214000e-03
-4.00914000 8.21220000e-03
-3.97914000 9.03979000e-03
-3.94914000 9.83524000e-03
-3.91914000 9.72274000e-03
-3.88914000 9.61820000e-03
-3.85914000 1.00216000e-02
-3.82914000 1.03787000e-02
-3.79914000 1.01644000e-02
-3.76914000 1.02311000e-02
-3.73914000 1.12849000e-02
-3.70914000 1.35525000e-02
-3.67914000 1.45449000e-02
-3.64914000 1.23429000e-02
-3.61914000 1.05576000e-02
-3.58914000 9.76534000e-03
-3.55914000 9.32653000e-03
-3.52914000 9.13392000e-03
-3.49914000 9.09724000e-03
-3.46914000 9.28591000e-03
-3.43914000 9.83209000e-03
-3.40914000 1.10027000e-02
-3.37914000 1.32004000e-02
-3.34914000 1.51939000e-02
-3.30886000 1.32490000e-02
-3.27886000 1.18019000e-02
-3.24886000 1.13117000e-02
-3.21886000 1.17760000e-02
-3.18886000 1.33945000e-02
-3.15886000 1.57123000e-02
-3.12886000 1.58067000e-02
-3.09886000 1.44978000e-02
-3.06886000 1.36384000e-02
-3.03886000 1.24844000e-02
-3.00886000 1.17008000e-02
-2.97886000 1.13850000e-02
-2.94886000 1.15809000e-02
-2.91886000 1.23503000e-02
-2.88886000 1.35878000e-02
-2.85886000 1.43880000e-02
-2.82886000 1.54878000e-02
-2.79886000 1.83312000e-02
-2.76886000 2.23623000e-02
-2.73886000 2.35387000e-02
-2.70886000 2.44282000e-02
-2.67886000 2.58423000e-02
-2.64886000 2.33292000e-02
-2.61886000 2.18244000e-02
-2.58886000 2.40145000e-02
-2.55886000 2.95336000e-02
-2.52886000 3.11580000e-02
-2.49886000 2.76249000e-02
-2.46886000 2.69733000e-02
-2.43886000 2.72959000e-02
-2.40886000 2.83075000e-02
-2.37886000 3.40108000e-02
-2.34886000 3.93094000e-02
-2.31886000 3.61056000e-02
-2.27858000 3.72098000e-02
-2.24858000 4.21845000e-02
-2.21858000 4.34987000e-02
-2.18858000 4.64142000e-02
-2.15858000 4.61391000e-02
-2.12858000 4.47298000e-02
-2.09858000 4.57393000e-02
-2.06858000 4.70235000e-02
-2.03858000 3.90054000e-02
-2.00858000 3.16199000e-02
-1.97858000 3.02499000e-02
-1.94858000 3.40929000e-02
-1.91858000 3.76776000e-02
-1.88858000 3.52058000e-02
-1.85858000 3.36683000e-02
-1.82858000 3.80343000e-02
-1.79858000 4.80614000e-02
-1.76858000 4.85973000e-02
-1.73858000 3.95171000e-02
-1.70858000 3.49678000e-02
-1.67858000 3.56129000e-02
-1.64858000 3.85340000e-02
-1.61858000 3.68090000e-02
-1.58858000 3.67719000e-02
-1.55858000 4.22322000e-02
-1.52858000 4.75750000e-02
-1.49858000 4.43045000e-02
-1.46858000 3.94236000e-02
-1.43858000 3.68965000e-02
-1.40858000 3.98363000e-02
-1.37858000 4.61255000e-02
-1.34858000 4.84561000e-02
-1.31858000 4.93533000e-02
-1.28858000 4.27865000e-02
-1.24829000 3.40004000e-02
-1.21829000 3.24996000e-02
-1.18829000 3.31526000e-02
-1.15829000 3.53496000e-02
-1.12829000 3.93458000e-02
-1.09829000 4.65189000e-02
-1.06829000 5.82546000e-02
-1.03829000 7.39785000e-02
-1.00829000 8.99114000e-02
-0.97829500 1.18435000e-01
-0.94829500 1.75799000e-01
-0.91829500 2.16164000e-01
-0.88829500 1.85286000e-01
-0.85829500 1.30582000e-01
-0.82829500 9.39553000e-02
-0.79829500 7.99461000e-02
-0.76829500 7.10184000e-02
-0.73829500 6.54937000e-02
-0.70829500 7.14043000e-02
-0.67829500 9.32479000e-02
-0.64829500 1.24635000e-01
-0.61829500 1.25374000e-01
-0.58829500 9.43312000e-02
-0.55829500 6.95563000e-02
-0.52829500 5.60978000e-02
-0.49829500 5.13944000e-02
-0.46829500 5.34686000e-02
-0.43829500 6.33884000e-02
-0.40829500 8.35254000e-02
-0.37829500 1.03744000e-01
-0.34829500 1.11201000e-01
-0.31829500 1.02307000e-01
-0.28829500 8.84485000e-02
-0.25829500 7.46590000e-02
-0.21801200 5.64294000e-02
-0.18801200 5.15241000e-02
-0.15801200 5.24211000e-02
-0.12801200 5.64760000e-02
-0.09801230 6.08894000e-02
-0.06801230 6.10879000e-02
-0.03801230 6.01624000e-02
-0.00801227 6.60761000e-02
0.02198770 8.31792000e-02
0.05198770 1.17992000e-01
0.08198770 1.57346000e-01
0.11198800 1.51824000e-01
0.14198800 1.22654000e-01
0.17198800 1.15102000e-01
0.20198800 1.28140000e-01
0.23198800 1.34876000e-01
0.26198800 1.11335000e-01
0.29198800 9.45880000e-02
0.32198800 9.42286000e-02
0.35198800 1.07678000e-01
0.38198800 1.39870000e-01
0.41198800 2.07371000e-01
0.44198800 3.15594000e-01
0.47198800 3.32710000e-01
0.50198800 2.27078000e-01
0.53198800 1.49592000e-01
0.56198800 1.09892000e-01
0.59198800 8.98804000e-02
0.62198800 7.92539000e-02
0.65198800 7.35209000e-02
0.68198800 7.04329000e-02
0.71198800 6.89844000e-02
0.74198800 7.08284000e-02
0.77198800 7.68457000e-02
