# E(MeV)  S_GAMTGAMT(K=1) for Lu188_DDPCX
-7.34038000 2.23239000e-03
-7.31038000 2.24502000e-03
-7.28038000 2.25715000e-03
-7.25038000 2.26887000e-03
-7.22038000 2.28019000e-03
-7.19038000 2.29115000e-03
-7.16038000 2.30175000e-03
-7.13038000 2.31199000e-03
-7.10038000 2.32185000e-03
-7.07038000 2.33131000e-03
-7.04038000 2.34032000e-03
-7.01038000 2.34884000e-03
-6.98038000 2.35679000e-03
-6.95038000 2.36409000e-03
-6.92038000 2.37062000e-03
-6.89038000 2.37625000e-03
-6.86038000 2.38078000e-03
-6.83038000 2.38399000e-03
-6.80038000 2.38557000e-03
-6.77038000 2.38515000e-03
-6.74038000 2.38219000e-03
-6.71038000 2.37599000e-03
-6.68038000 2.36556000e-03
-6.65038000 2.34945000e-03
-6.62038000 2.32543000e-03
-6.59038000 2.28982000e-03
-6.56038000 2.23596000e-03
-6.52512000 2.13086000e-03
-6.49512000 1.97850000e-03
-6.46512000 1.79011000e-03
-6.43512000 1.69798000e-03
-6.40512000 1.58543000e-03
-6.37512000 1.32184000e-03
-6.34512000 8.41049000e-04
-6.31512000 -8.04643000e-06
-6.28512000 -1.58509000e-03
-6.25512000 -4.71527000e-03
-6.22512000 -1.06702000e-02
-6.19512000 -1.62466000e-02
-6.16512000 -1.22789000e-02
-6.13512000 -5.89272000e-03
-6.10512000 -2.21429000e-03
-6.07512000 -2.83161000e-04
-6.04512000 8.19834000e-04
-6.01512000 1.47436000e-03
-5.98512000 1.88914000e-03
-5.95512000 2.17066000e-03
-5.92512000 2.37333000e-03
-5.89512000 2.52672000e-03
-5.86512000 2.64794000e-03
-5.83512000 2.74747000e-03
-5.80512000 2.83200000e-03
-5.77512000 2.90600000e-03
-5.74512000 2.97255000e-03
-5.70985000 3.04422000e-03
-5.67985000 3.10146000e-03
-5.64985000 3.15657000e-03
-5.61985000 3.21055000e-03
-5.58985000 3.26422000e-03
-5.55985000 3.31833000e-03
-5.52985000 3.37358000e-03
-5.49985000 3.43067000e-03
-5.46985000 3.49031000e-03
-5.43985000 3.55331000e-03
-5.40985000 3.62054000e-03
-5.37985000 3.69306000e-03
-5.34985000 3.77212000e-03
-5.31985000 3.85927000e-03
-5.28985000 3.95644000e-03
-5.25985000 4.06611000e-03
-5.22985000 4.19151000e-03
-5.19985000 4.33695000e-03
-5.16985000 4.50823000e-03
-5.13985000 4.71341000e-03
-5.10985000 4.96389000e-03
-5.07985000 5.27630000e-03
-5.04985000 5.67554000e-03
-5.01985000 6.20036000e-03
-4.98985000 6.91352000e-03
-4.95985000 7.92176000e-03
-4.92985000 9.41747000e-03
-4.89459000 1.23217000e-02
-4.86459000 1.67339000e-02
-4.83459000 2.49976000e-02
-4.80459000 4.13811000e-02
-4.77459000 6.79638000e-02
-4.74459000 7.48923000e-02
-4.71459000 5.21929000e-02
-4.68459000 3.72983000e-02
-4.65459000 2.92210000e-02
-4.62459000 2.05523000e-02
-4.59459000 1.44436000e-02
-4.56459000 1.10480000e-02
-4.53459000 9.09816000e-03
-4.50459000 7.89663000e-03
-4.47459000 7.11392000e-03
-4.44459000 6.58773000e-03
-4.41459000 6.23095000e-03
-4.38459000 5.96401000e-03
-4.35459000 5.73641000e-03
-4.32459000 5.56677000e-03
-4.29459000 5.44704000e-03
-4.26459000 5.36280000e-03
-4.23459000 5.30469000e-03
-4.20459000 5.26674000e-03
-4.17459000 5.24491000e-03
-4.14459000 5.23633000e-03
-4.11459000 5.23891000e-03
-4.07932000 5.25413000e-03
-4.04932000 5.27615000e-03
-4.01932000 5.30561000e-03
-3.98932000 5.34191000e-03
-3.95932000 5.38461000e-03
-3.92932000 5.43341000e-03
-3.89932000 5.48812000e-03
-3.86932000 5.54865000e-03
-3.83932000 5.61501000e-03
-3.80932000 5.68728000e-03
-3.77932000 5.76563000e-03
-3.74932000 5.85030000e-03
-3.71932000 5.94162000e-03
-3.68932000 6.04000000e-03
-3.65932000 6.14593000e-03
-3.62932000 6.26002000e-03
-3.59932000 6.38298000e-03
-3.56932000 6.51567000e-03
-3.53932000 6.65911000e-03
-3.50932000 6.81448000e-03
-3.47932000 6.98321000e-03
-3.44932000 7.16700000e-03
-3.41932000 7.36788000e-03
-3.38932000 7.58831000e-03
-3.35932000 7.83133000e-03
-3.32932000 8.10064000e-03
-3.29932000 8.40093000e-03
-3.26406000 8.80175000e-03
-3.23406000 9.19278000e-03
-3.20406000 9.64174000e-03
-3.17406000 1.01653000e-02
-3.14406000 1.07893000e-02
-3.11406000 1.15589000e-02
-3.08406000 1.25580000e-02
-3.05406000 1.39249000e-02
-3.02406000 1.56812000e-02
-2.99406000 1.71069000e-02
-2.96406000 1.82301000e-02
-2.93406000 2.00139000e-02
-2.90406000 2.24555000e-02
-2.87406000 2.60100000e-02
-2.84406000 3.14117000e-02
-2.81406000 3.99072000e-02
-2.78406000 5.41836000e-02
-2.75406000 7.95886000e-02
-2.72406000 1.21133000e-01
-2.69406000 1.57176000e-01
-2.66406000 1.81184000e-01
-2.63406000 2.33972000e-01
-2.60406000 2.97486000e-01
-2.57406000 3.56557000e-01
-2.54406000 2.94827000e-01
-2.51406000 1.92511000e-01
-2.48406000 1.29365000e-01
-2.44879000 8.73681000e-02
-2.41879000 6.98076000e-02
-2.38879000 6.39296000e-02
-2.35879000 6.76658000e-02
-2.32879000 8.39650000e-02
-2.29879000 1.22131000e-01
-2.26879000 1.81112000e-01
-2.23879000 1.86173000e-01
-2.20879000 1.40073000e-01
-2.17879000 1.03187000e-01
-2.14879000 8.33214000e-02
-2.11879000 7.36642000e-02
-2.08879000 6.91852000e-02
-2.05879000 7.50311000e-02
-2.02879000 8.52958000e-02
-1.99879000 8.74596000e-02
-1.96879000 9.57342000e-02
-1.93879000 1.21585000e-01
-1.90879000 1.76623000e-01
-1.87879000 2.89020000e-01
-1.84879000 4.87781000e-01
-1.81879000 6.15526000e-01
-1.78879000 5.33617000e-01
-1.75879000 4.02733000e-01
-1.72879000 2.58601000e-01
-1.69879000 1.81505000e-01
-1.66879000 1.51168000e-01
-1.63353000 1.08954000e-01
-1.60353000 7.57650000e-02
-1.57353000 5.61134000e-02
-1.54353000 4.44781000e-02
-1.51353000 3.70760000e-02
-1.48353000 3.20813000e-02
-1.45353000 2.85879000e-02
-1.42353000 2.61301000e-02
-1.39353000 2.44973000e-02
-1.36353000 2.36262000e-02
-1.33353000 2.30237000e-02
-1.30353000 2.17954000e-02
-1.27353000 2.07453000e-02
-1.24353000 2.02465000e-02
-1.21353000 2.02302000e-02
-1.18353000 2.07457000e-02
-1.15353000 2.20665000e-02
-1.12353000 2.49036000e-02
-1.09353000 3.07456000e-02
-1.06353000 3.95233000e-02
-1.03353000 3.98027000e-02
-1.00353000 3.18220000e-02
-0.97352500 2.70947000e-02
-0.94352500 2.59917000e-02
-0.91352500 2.76715000e-02
-0.88352500 3.04891000e-02
-0.85352500 2.92433000e-02
-0.81826000 2.63839000e-02
-0.78826000 2.58399000e-02
-0.75826000 2.65784000e-02
-0.72826000 2.83576000e-02
-0.69826000 3.13825000e-02
-0.66826000 3.64050000e-02
-0.63826000 4.49790000e-02
-0.60826000 5.74737000e-02
-0.57826000 6.90135000e-02
-0.54826000 8.45106000e-02
-0.51826000 9.72416000e-02
-0.48826000 1.10840000e-01
-0.45826000 1.52669000e-01
-0.42826000 2.10214000e-01
-0.39826000 1.99927000e-01
-0.36826000 1.68522000e-01
-0.33826000 1.84236000e-01
-0.30826000 2.12623000e-01
-0.27826000 1.68781000e-01
-0.24826000 1.14821000e-01
-0.21826000 8.72112000e-02
-0.18826000 7.46952000e-02
-0.15826000 6.97607000e-02
-0.12826000 7.07310000e-02
-0.09826020 7.77849000e-02
-0.06826020 9.37630000e-02
-0.03826020 1.21044000e-01
-0.00299512 1.34141000e-01
0.02700490 1.20214000e-01
0.05700490 1.16797000e-01
0.08700490 1.26021000e-01
0.11700500 1.46037000e-01
0.14700500 1.78764000e-01
0.17700500 2.30621000e-01
0.20700500 3.15566000e-01
0.23700500 4.62980000e-01
0.26700500 7.38294000e-01
0.29700500 1.26091000e+00
0.32700500 2.00410000e+00
0.35700500 2.41251000e+00
0.38700500 1.77788000e+00
0.41700500 1.04973000e+00
0.44700500 6.49355000e-01
0.47700500 4.39618000e-01
0.50700500 3.31884000e-01
0.53700500 2.79636000e-01
0.56700500 2.63227000e-01
0.59700500 2.78740000e-01
0.62700500 3.36035000e-01
0.65700500 4.67239000e-01
0.68700500 7.43381000e-01
0.71700500 1.19354000e+00
0.74700500 1.35234000e+00
0.77700500 9.38929000e-01
