# E(MeV)  S_GAMTGAMT(K=0) for Lu188_DDPCX
-7.34038000 2.49848000e-03
-7.31038000 2.51584000e-03
-7.28038000 2.53279000e-03
-7.25038000 2.54943000e-03
-7.22038000 2.56584000e-03
-7.19038000 2.58207000e-03
-7.16038000 2.59815000e-03
-7.13038000 2.61410000e-03
-7.10038000 2.62990000e-03
-7.07038000 2.64554000e-03
-7.04038000 2.66094000e-03
-7.01038000 2.67592000e-03
-6.98038000 2.69012000e-03
-6.95038000 2.70271000e-03
-6.92038000 2.71244000e-03
-6.89038000 2.72249000e-03
-6.86038000 2.74153000e-03
-6.83038000 2.76162000e-03
-6.80038000 2.77815000e-03
-6.77038000 2.79185000e-03
-6.74038000 2.80294000e-03
-6.71038000 2.81079000e-03
-6.68038000 2.81388000e-03
-6.65038000 2.80922000e-03
-6.62038000 2.79105000e-03
-6.59038000 2.74750000e-03
-6.56038000 2.65223000e-03
-6.52512000 2.39013000e-03
-6.49512000 1.94086000e-03
-6.46512000 1.63902000e-03
-6.43512000 2.06957000e-03
-6.40512000 2.52805000e-03
-6.37512000 2.77910000e-03
-6.34512000 2.91713000e-03
-6.31512000 3.00244000e-03
-6.28512000 3.06129000e-03
-6.25512000 3.10488000e-03
-6.22512000 3.13712000e-03
-6.19512000 3.15663000e-03
-6.16512000 3.15891000e-03
-6.13512000 3.16600000e-03
-6.10512000 3.22329000e-03
-6.07512000 3.28550000e-03
-6.04512000 3.33299000e-03
-6.01512000 3.37235000e-03
-5.98512000 3.40814000e-03
-5.95512000 3.44246000e-03
-5.92512000 3.47632000e-03
-5.89512000 3.51023000e-03
-5.86512000 3.54451000e-03
-5.83512000 3.57937000e-03
-5.80512000 3.61498000e-03
-5.77512000 3.65147000e-03
-5.74512000 3.68896000e-03
-5.70985000 3.73447000e-03
-5.67985000 3.77454000e-03
-5.64985000 3.81599000e-03
-5.61985000 3.85894000e-03
-5.58985000 3.90354000e-03
-5.55985000 3.94995000e-03
-5.52985000 3.99834000e-03
-5.49985000 4.04889000e-03
-5.46985000 4.10183000e-03
-5.43985000 4.15741000e-03
-5.40985000 4.21589000e-03
-5.37985000 4.27761000e-03
-5.34985000 4.34293000e-03
-5.31985000 4.41227000e-03
-5.28985000 4.48613000e-03
-5.25985000 4.56509000e-03
-5.22985000 4.64982000e-03
-5.19985000 4.74113000e-03
-5.16985000 4.83997000e-03
-5.13985000 4.94748000e-03
-5.10985000 5.06505000e-03
-5.07985000 5.19435000e-03
-5.04985000 5.33744000e-03
-5.01985000 5.49687000e-03
-4.98985000 5.67583000e-03
-4.95985000 5.87834000e-03
-4.92985000 6.10955000e-03
-4.89459000 6.42723000e-03
-4.86459000 6.74692000e-03
-4.83459000 7.12516000e-03
-4.80459000 7.57927000e-03
-4.77459000 8.13395000e-03
-4.74459000 8.82394000e-03
-4.71459000 9.68712000e-03
-4.68459000 1.07790000e-02
-4.65459000 1.22281000e-02
-4.62459000 1.42181000e-02
-4.59459000 1.70473000e-02
-4.56459000 2.12524000e-02
-4.53459000 2.78637000e-02
-4.50459000 3.90105000e-02
-4.47459000 5.94343000e-02
-4.44459000 9.98212000e-02
-4.41459000 1.75144000e-01
-4.38459000 2.35294000e-01
-4.35459000 1.73550000e-01
-4.32459000 9.89898000e-02
-4.29459000 5.92537000e-02
-4.26459000 3.91979000e-02
-4.23459000 2.82881000e-02
-4.20459000 2.18576000e-02
-4.17459000 1.78084000e-02
-4.14459000 1.51248000e-02
-4.11459000 1.32774000e-02
-4.07932000 1.17882000e-02
-4.04932000 1.09227000e-02
-4.01932000 1.03499000e-02
-3.98932000 1.00398000e-02
-3.95932000 9.76582000e-03
-3.92932000 9.26811000e-03
-3.89932000 8.84957000e-03
-3.86932000 8.57938000e-03
-3.83932000 8.40392000e-03
-3.80932000 8.28933000e-03
-3.77932000 8.21815000e-03
-3.74932000 8.18060000e-03
-3.71932000 8.17062000e-03
-3.68932000 8.18422000e-03
-3.65932000 8.21864000e-03
-3.62932000 8.27201000e-03
-3.59932000 8.34307000e-03
-3.56932000 8.43105000e-03
-3.53932000 8.53559000e-03
-3.50932000 8.65672000e-03
-3.47932000 8.79486000e-03
-3.44932000 8.95082000e-03
-3.41932000 9.12591000e-03
-3.38932000 9.32206000e-03
-3.35932000 9.54204000e-03
-3.32932000 9.78995000e-03
-3.29932000 1.00720000e-02
-3.26406000 1.04607000e-02
-3.23406000 1.08606000e-02
-3.20406000 1.13597000e-02
-3.17406000 1.20292000e-02
-3.14406000 1.30267000e-02
-3.11406000 1.46794000e-02
-3.08406000 1.70923000e-02
-3.05406000 1.79501000e-02
-3.02406000 1.67465000e-02
-2.99406000 1.60052000e-02
-2.96406000 1.60067000e-02
-2.93406000 1.65089000e-02
-2.90406000 1.73733000e-02
-2.87406000 1.86061000e-02
-2.84406000 2.03606000e-02
-2.81406000 2.29700000e-02
-2.78406000 2.62600000e-02
-2.75406000 2.78416000e-02
-2.72406000 2.85977000e-02
-2.69406000 3.06220000e-02
-2.66406000 3.40083000e-02
-2.63406000 3.88531000e-02
-2.60406000 4.56404000e-02
-2.57406000 5.53921000e-02
-2.54406000 7.01317000e-02
-2.51406000 9.40802000e-02
-2.48406000 1.36400000e-01
-2.44879000 2.29499000e-01
-2.41879000 3.10302000e-01
-2.38879000 3.22767000e-01
-2.35879000 3.88842000e-01
-2.32879000 5.85303000e-01
-2.29879000 7.52539000e-01
-2.26879000 6.07189000e-01
-2.23879000 4.66029000e-01
-2.20879000 4.54470000e-01
-2.17879000 4.05682000e-01
-2.14879000 3.25227000e-01
-2.11879000 3.10077000e-01
-2.08879000 2.96881000e-01
-2.05879000 3.09755000e-01
-2.02879000 3.47794000e-01
-1.99879000 2.69941000e-01
-1.96879000 1.69079000e-01
-1.93879000 1.12353000e-01
-1.90879000 8.25591000e-02
-1.87879000 6.58789000e-02
-1.84879000 5.60655000e-02
-1.81879000 4.99941000e-02
-1.78879000 4.63631000e-02
-1.75879000 4.54386000e-02
-1.72879000 4.60130000e-02
-1.69879000 4.33261000e-02
-1.66879000 3.96799000e-02
-1.63353000 3.76370000e-02
-1.60353000 3.72602000e-02
-1.57353000 3.76889000e-02
-1.54353000 3.87677000e-02
-1.51353000 4.04724000e-02
-1.48353000 4.28614000e-02
-1.45353000 4.60705000e-02
-1.42353000 5.03397000e-02
-1.39353000 5.60828000e-02
-1.36353000 6.40519000e-02
-1.33353000 7.57041000e-02
-1.30353000 9.35428000e-02
-1.27353000 1.16726000e-01
-1.24353000 1.34436000e-01
-1.21353000 1.57784000e-01
-1.18353000 2.03872000e-01
-1.15353000 2.89511000e-01
-1.12353000 4.53561000e-01
-1.09353000 7.67955000e-01
-1.06353000 1.15350000e+00
-1.03353000 1.10119000e+00
-1.00353000 9.36866000e-01
-0.97352500 1.09524000e+00
-0.94352500 1.38337000e+00
-0.91352500 1.10336000e+00
-0.88352500 6.48891000e-01
-0.85352500 3.90874000e-01
-0.81826000 2.42626000e-01
-0.78826000 1.76488000e-01
-0.75826000 1.36522000e-01
-0.72826000 1.10802000e-01
-0.69826000 9.34538000e-02
-0.66826000 8.13512000e-02
-0.63826000 7.27226000e-02
-0.60826000 6.65094000e-02
-0.57826000 6.20534000e-02
-0.54826000 5.89351000e-02
-0.51826000 5.68848000e-02
-0.48826000 5.57341000e-02
-0.45826000 5.53895000e-02
-0.42826000 5.58211000e-02
-0.39826000 5.70615000e-02
-0.36826000 5.91581000e-02
-0.33826000 6.20970000e-02
-0.30826000 6.61906000e-02
-0.27826000 7.19397000e-02
-0.24826000 7.99793000e-02
-0.21826000 9.13889000e-02
-0.18826000 1.08104000e-01
-0.15826000 1.33780000e-01
-0.12826000 1.75824000e-01
-0.09826020 2.50381000e-01
-0.06826020 3.93509000e-01
-0.03826020 6.68965000e-01
-0.00299512 1.02410000e+00
0.02700490 8.10071000e-01
0.05700490 4.84708000e-01
0.08700490 3.08278000e-01
0.11700500 2.22387000e-01
0.14700500 1.79145000e-01
0.17700500 1.57240000e-01
0.20700500 1.47314000e-01
0.23700500 1.45079000e-01
0.26700500 1.48591000e-01
0.29700500 1.57151000e-01
0.32700500 1.70885000e-01
0.35700500 1.90662000e-01
0.38700500 2.18266000e-01
0.41700500 2.56901000e-01
0.44700500 3.12328000e-01
0.47700500 3.95304000e-01
0.50700500 5.25199000e-01
0.53700500 7.27252000e-01
0.56700500 1.06404000e+00
0.59700500 1.72267000e+00
0.62700500 2.82024000e+00
0.65700500 3.24268000e+00
0.68700500 2.43359000e+00
0.71700500 1.96305000e+00
0.74700500 2.12958000e+00
0.77700500 3.03183000e+00
