# E(MeV)  S_GAMTGAMT(Total=K0+2*K1) for Lu184_DDPCX
-8.58324000 -1.47023100e-02
-8.55324000 -1.69973800e-02
-8.52324000 -1.77593000e-02
-8.49324000 -1.22518600e-02
-8.46324000 -5.78303200e-03
-8.43324000 -2.08068140e-03
-8.40324000 -1.83070000e-04
-8.37324000 8.13047000e-04
-8.34324000 1.30271500e-03
-8.31324000 1.41456100e-03
-8.28324000 1.09607800e-03
-8.25324000 6.21950000e-05
-8.22324000 -2.15338500e-03
-8.19324000 -4.07081000e-03
-8.16324000 -2.07586600e-03
-8.13324000 4.65574000e-04
-8.10324000 1.85291900e-03
-8.07324000 2.56681100e-03
-8.04324000 2.95887700e-03
-8.01324000 3.18412000e-03
-7.98324000 3.30961800e-03
-7.95324000 3.36344700e-03
-7.92324000 3.35286300e-03
-7.89324000 3.26892400e-03
-7.86324000 3.08210200e-03
-7.83324000 2.72500800e-03
-7.80324000 2.04655700e-03
-7.77324000 6.99130000e-04
-7.74324000 -1.99658000e-03
-7.71324000 -5.67802000e-03
-7.68324000 -5.03420000e-03
-7.64369000 -5.63660000e-04
-7.61369000 1.07121000e-03
-7.58369000 1.61199000e-03
-7.55369000 1.38256000e-03
-7.52369000 2.15500000e-04
-7.49369000 -2.48317000e-03
-7.46369000 -5.71723000e-03
-7.43369000 -4.05381000e-03
-7.40369000 -4.08350000e-04
-7.37369000 1.69739000e-03
-7.34369000 2.73803300e-03
-7.31369000 3.24074100e-03
-7.28369000 3.40483700e-03
-7.25369000 3.30743600e-03
-7.22369000 3.36754800e-03
-7.19369000 3.81610000e-03
-7.16369000 4.16912000e-03
-7.13369000 4.37548000e-03
-7.10369000 4.50405000e-03
-7.07369000 4.59207000e-03
-7.04369000 4.65638000e-03
-7.01369000 4.70453000e-03
-6.98369000 4.73930000e-03
-6.95369000 4.76085000e-03
-6.92369000 4.76900000e-03
-6.89369000 4.75219000e-03
-6.86369000 4.70625000e-03
-6.83369000 4.72317000e-03
-6.80369000 4.81123000e-03
-6.77369000 4.87560000e-03
-6.74369000 4.91257000e-03
-6.70414000 4.93974000e-03
-6.67414000 4.95119000e-03
-6.64414000 4.95721000e-03
-6.61414000 4.95857000e-03
-6.58414000 4.95555000e-03
-6.55414000 4.94803000e-03
-6.52414000 4.93573000e-03
-6.49414000 4.91817000e-03
-6.46414000 4.89471000e-03
-6.43414000 4.86456000e-03
-6.40414000 4.82667000e-03
-6.37414000 4.77980000e-03
-6.34414000 4.72232800e-03
-6.31414000 4.65231400e-03
-6.28414000 4.56725200e-03
-6.25414000 4.46394600e-03
-6.22414000 4.33832800e-03
-6.19414000 4.18506400e-03
-6.16414000 3.99712600e-03
-6.13414000 3.76504400e-03
-6.10414000 3.47582860e-03
-6.07414000 3.11129900e-03
-6.04414000 2.64530600e-03
-6.01414000 2.03910000e-03
-5.98414000 1.23325000e-03
-5.95414000 1.32580000e-04
-5.92414000 -1.42313000e-03
-5.89414000 -3.72075200e-03
-5.86414000 -7.31280000e-03
-5.83414000 -1.33523500e-02
-5.80414000 -2.43829200e-02
-5.76459000 -5.42641400e-02
-5.73459000 -7.85913000e-02
-5.70459000 -7.78197200e-02
-5.67459000 -8.79131800e-02
-5.64459000 -1.23343280e-01
-5.61459000 -1.20447192e-01
-5.58459000 -7.12839420e-02
-5.55459000 -3.76539800e-02
-5.52459000 -2.04247600e-02
-5.49459000 -1.15045200e-02
-5.46459000 -6.64235000e-03
-5.43459000 -3.75553000e-03
-5.40459000 -2.05506000e-03
-5.37459000 -1.26583200e-03
-5.34459000 -1.44797400e-03
-5.31459000 -3.12161000e-03
-5.28459000 -7.47919400e-03
-5.25459000 -1.37249230e-02
-5.22459000 -1.15578500e-02
-5.19459000 -3.32460000e-03
-5.16459000 2.89814000e-03
-5.13459000 7.09132200e-03
-5.10459000 7.67505000e-03
-5.07459000 6.75656000e-03
-5.04459000 6.36077000e-03
-5.01459000 6.29106000e-03
-4.98459000 6.27842000e-03
-4.95459000 6.32573000e-03
-4.92459000 6.41491000e-03
-4.89459000 6.51961000e-03
-4.86459000 6.62741000e-03
-4.82504000 6.76640000e-03
-4.79504000 6.86749000e-03
-4.76504000 6.96453000e-03
-4.73504000 7.05773000e-03
-4.70504000 7.14748000e-03
-4.67504000 7.23419000e-03
-4.64504000 7.31828000e-03
-4.61504000 7.40017000e-03
-4.58504000 7.48023000e-03
-4.55504000 7.55877000e-03
-4.52504000 7.63614000e-03
-4.49504000 7.71259000e-03
-4.46504000 7.78841000e-03
-4.43504000 7.86380000e-03
-4.40504000 7.93907000e-03
-4.37504000 8.01441000e-03
-4.34504000 8.09002000e-03
-4.31504000 8.16618000e-03
-4.28504000 8.24310000e-03
-4.25504000 8.32102000e-03
-4.22504000 8.40023000e-03
-4.19504000 8.48106000e-03
-4.16504000 8.56385000e-03
-4.13504000 8.64908000e-03
-4.10504000 8.73730000e-03
-4.07504000 8.82931000e-03
-4.04504000 8.92634000e-03
-4.01504000 9.03036000e-03
-3.98504000 9.14518000e-03
-3.95504000 9.27760000e-03
-3.92504000 9.42988000e-03
-3.88549000 9.61254000e-03
-3.85549000 9.76382000e-03
-3.82549000 9.95413000e-03
-3.79549000 1.01163300e-02
-3.76549000 1.02863900e-02
-3.73549000 1.05302000e-02
-3.70549000 1.08719100e-02
-3.67549000 1.13599400e-02
-3.64549000 1.21040400e-02
-3.61549000 1.33502400e-02
-3.58549000 1.56538700e-02
-3.55549000 1.98696900e-02
-3.52549000 2.38295300e-02
-3.49549000 2.13676200e-02
-3.46549000 1.79105100e-02
-3.43549000 1.67342900e-02
-3.40549000 1.74267000e-02
-3.37549000 2.02114000e-02
-3.34549000 2.65232600e-02
-3.31549000 3.63632600e-02
-3.28549000 3.67459600e-02
-3.25549000 2.68655000e-02
-3.22549000 2.01611800e-02
-3.19549000 1.68534100e-02
-3.16549000 1.51962200e-02
-3.13549000 1.43315500e-02
-3.10549000 1.38903000e-02
-3.07549000 1.37027500e-02
-3.04549000 1.36116000e-02
-3.01549000 1.35313700e-02
-2.98549000 1.35287300e-02
-2.94593000 1.36329300e-02
-2.91593000 1.37682800e-02
-2.88593000 1.39408400e-02
-2.85593000 1.41461300e-02
-2.82593000 1.43823500e-02
-2.79593000 1.46497200e-02
-2.76593000 1.49500300e-02
-2.73593000 1.52869700e-02
-2.70593000 1.56671200e-02
-2.67593000 1.61023000e-02
-2.64593000 1.66159000e-02
-2.61593000 1.72547400e-02
-2.58593000 1.80576900e-02
-2.55593000 1.87590800e-02
-2.52593000 1.91807900e-02
-2.49593000 1.97338900e-02
-2.46593000 2.04940000e-02
-2.43593000 2.14325700e-02
-2.40593000 2.25510300e-02
-2.37593000 2.38766500e-02
-2.34593000 2.54603100e-02
-2.31593000 2.73845800e-02
-2.28593000 2.97889700e-02
-2.25593000 3.28905800e-02
-2.22593000 3.67091400e-02
-2.19593000 4.07408600e-02
-2.16593000 4.58826800e-02
-2.13593000 5.31544800e-02
-2.10593000 6.22674300e-02
-2.07593000 7.37427300e-02
-2.04593000 9.06179500e-02
-2.00638000 1.25066590e-01
-1.97638000 1.70222950e-01
-1.94638000 2.49914900e-01
-1.91638000 4.01197250e-01
-1.88638000 7.03408230e-01
-1.85638000 1.19668460e+00
-1.82638000 1.31348635e+00
-1.79638000 8.31820590e-01
-1.76638000 4.67858510e-01
-1.73638000 2.83847250e-01
-1.70638000 1.88880220e-01
-1.67638000 1.35708210e-01
-1.64638000 1.03670770e-01
-1.61638000 8.33422800e-02
-1.58638000 7.02354900e-02
-1.55638000 6.23121000e-02
-1.52638000 5.77824000e-02
-1.49638000 5.19263200e-02
-1.46638000 4.50512400e-02
-1.43638000 4.00721700e-02
-1.40638000 3.66994600e-02
-1.37638000 3.43042900e-02
-1.34638000 3.25502200e-02
-1.31638000 3.12658800e-02
-1.28638000 3.03664500e-02
-1.25638000 2.98276100e-02
-1.22638000 2.96961500e-02
-1.19638000 3.01257100e-02
-1.16638000 3.12190000e-02
-1.13638000 3.22400300e-02
-1.10638000 3.36280400e-02
-1.06683000 3.85828000e-02
-1.03683000 4.26742000e-02
-1.00683000 4.78935000e-02
-0.97683200 5.71212000e-02
-0.94683200 5.67956000e-02
-0.91683200 4.53512000e-02
-0.88683200 3.79018000e-02
-0.85683200 3.48417000e-02
-0.82683200 3.41272900e-02
-0.79683200 3.45090200e-02
-0.76683200 3.55305200e-02
-0.73683200 3.50336800e-02
-0.70683200 3.39399200e-02
-0.67683200 3.40823700e-02
-0.64683200 3.52770800e-02
-0.61683200 3.60671000e-02
-0.58683200 3.58210300e-02
-0.55683200 3.61666100e-02
-0.52683200 3.74323800e-02
-0.49683200 3.95625500e-02
-0.46683200 4.28396400e-02
-0.43683200 4.83666000e-02
-0.40683200 5.79897000e-02
-0.37683200 7.19532000e-02
-0.34683200 8.02020000e-02
-0.31683200 8.11886000e-02
-0.28683200 8.17078000e-02
-0.25683200 8.35514000e-02
-0.22683200 8.31369000e-02
-0.19683200 8.93024000e-02
-0.16683200 1.05182700e-01
-0.12728100 9.89389000e-02
-0.09728120 8.39177000e-02
-0.06728120 7.77819000e-02
-0.03728120 7.77081000e-02
-0.00728121 8.14451000e-02
0.02271880 8.85099000e-02
0.05271880 9.95042000e-02
0.08271880 1.15014600e-01
0.11271900 1.39012900e-01
0.14271900 1.80064400e-01
0.17271900 2.42406200e-01
0.20271900 2.80964000e-01
0.23271900 2.48762900e-01
0.26271900 2.25754100e-01
0.29271900 2.33479800e-01
0.32271900 2.68486100e-01
0.35271900 3.37495000e-01
0.38271900 4.62687000e-01
0.41271900 6.45523000e-01
0.44271900 7.51284000e-01
0.47271900 8.33553000e-01
0.50271900 1.08552300e+00
0.53271900 1.63028540e+00
0.56271900 2.27439420e+00
0.59271900 2.28597580e+00
0.62271900 2.28361170e+00
0.65271900 2.68634720e+00
0.68271900 3.90648160e+00
0.71271900 5.82542990e+00
0.74271900 5.44065620e+00
0.77271900 3.32825780e+00
