# E(MeV)  S_GAMTGAMT(Total=K0+2*K1) for Md289_DDPCX
-7.93682000 9.69928000e-03
-7.90682000 9.73636000e-03
-7.87682000 9.77363000e-03
-7.84682000 9.81109000e-03
-7.81682000 9.84876000e-03
-7.78682000 9.88664000e-03
-7.75682000 9.92473000e-03
-7.72682000 9.96302000e-03
-7.69682000 1.00015400e-02
-7.66682000 1.00402700e-02
-7.63682000 1.00792200e-02
-7.60682000 1.01183900e-02
-7.57682000 1.01577900e-02
-7.54682000 1.01974100e-02
-7.51682000 1.02372800e-02
-7.48682000 1.02773800e-02
-7.45682000 1.03177100e-02
-7.42682000 1.03582700e-02
-7.39682000 1.03991100e-02
-7.36682000 1.04401800e-02
-7.33682000 1.04814900e-02
-7.30682000 1.05230800e-02
-7.27682000 1.05649200e-02
-7.24682000 1.06070100e-02
-7.21682000 1.06493900e-02
-7.18682000 1.06920200e-02
-7.15682000 1.07349400e-02
-7.12682000 1.07781400e-02
-7.09682000 1.08216400e-02
-7.06191000 1.08726000e-02
-7.03191000 1.09167400e-02
-7.00191000 1.09611700e-02
-6.97191000 1.10059400e-02
-6.94191000 1.10510500e-02
-6.91191000 1.10965100e-02
-6.88191000 1.11423200e-02
-6.85191000 1.11885000e-02
-6.82191000 1.12351300e-02
-6.79191000 1.12822700e-02
-6.76191000 1.13300200e-02
-6.73191000 1.13785400e-02
-6.70191000 1.14280600e-02
-6.67191000 1.14789700e-02
-6.64191000 1.15326400e-02
-6.61191000 1.15903700e-02
-6.58191000 1.16485900e-02
-6.55191000 1.17079100e-02
-6.52191000 1.17822600e-02
-6.49191000 1.18761600e-02
-6.46191000 1.19484600e-02
-6.43191000 1.19543900e-02
-6.40191000 1.19638500e-02
-6.37191000 1.19935900e-02
-6.34191000 1.20341900e-02
-6.31191000 1.20800700e-02
-6.28191000 1.21288000e-02
-6.25191000 1.21792300e-02
-6.22191000 1.22308200e-02
-6.18700000 1.22919700e-02
-6.15700000 1.23453100e-02
-6.12700000 1.23992600e-02
-6.09700000 1.24537700e-02
-6.06700000 1.25088300e-02
-6.03700000 1.25644000e-02
-6.00700000 1.26204900e-02
-5.97700000 1.26770900e-02
-5.94700000 1.27342000e-02
-5.91700000 1.27918200e-02
-5.88700000 1.28499500e-02
-5.85700000 1.29086100e-02
-5.82700000 1.29678000e-02
-5.79700000 1.30275400e-02
-5.76700000 1.30878500e-02
-5.73700000 1.31487400e-02
-5.70700000 1.32103000e-02
-5.67700000 1.32725800e-02
-5.64700000 1.33356900e-02
-5.61700000 1.33994800e-02
-5.58700000 1.34641600e-02
-5.55700000 1.35306100e-02
-5.52700000 1.35980400e-02
-5.49700000 1.36630100e-02
-5.46700000 1.37272100e-02
-5.43700000 1.37934100e-02
-5.40700000 1.38616000e-02
-5.37700000 1.39317100e-02
-5.34700000 1.40041200e-02
-5.31209000 1.40929500e-02
-5.28209000 1.41765400e-02
-5.25209000 1.42739300e-02
-5.22209000 1.43926600e-02
-5.19209000 1.44956000e-02
-5.16209000 1.45323500e-02
-5.13209000 1.45655200e-02
-5.10209000 1.46203900e-02
-5.07209000 1.46893100e-02
-5.04209000 1.47666900e-02
-5.01209000 1.48482300e-02
-4.98209000 1.49320100e-02
-4.95209000 1.50191100e-02
-4.92209000 1.51126800e-02
-4.89209000 1.52166200e-02
-4.86209000 1.53377700e-02
-4.83209000 1.54937800e-02
-4.80209000 1.57196000e-02
-4.77209000 1.60545800e-02
-4.74209000 1.63868600e-02
-4.71209000 1.64766000e-02
-4.68209000 1.63700100e-02
-4.65209000 1.62706000e-02
-4.62209000 1.62785400e-02
-4.59209000 1.64132900e-02
-4.56209000 1.67073700e-02
-4.53209000 1.71735700e-02
-4.50209000 1.73721500e-02
-4.47209000 1.71891200e-02
-4.43718000 1.71478400e-02
-4.40718000 1.70909600e-02
-4.37718000 1.70430900e-02
-4.34718000 1.71085900e-02
-4.31718000 1.71833000e-02
-4.28718000 1.71994800e-02
-4.25718000 1.72119900e-02
-4.22718000 1.72569800e-02
-4.19718000 1.73307500e-02
-4.16718000 1.74185500e-02
-4.13718000 1.75155400e-02
-4.10718000 1.76199100e-02
-4.07718000 1.77299100e-02
-4.04718000 1.78445800e-02
-4.01718000 1.79638000e-02
-3.98718000 1.80877400e-02
-3.95718000 1.82169000e-02
-3.92718000 1.83520000e-02
-3.89718000 1.84945800e-02
-3.86718000 1.86477700e-02
-3.83718000 1.88173500e-02
-3.80718000 1.90148700e-02
-3.77718000 1.92641100e-02
-3.74718000 1.96031800e-02
-3.71718000 2.00732600e-02
-3.68718000 2.06101900e-02
-3.65718000 2.06903300e-02
-3.62718000 2.04392900e-02
-3.59718000 2.03627600e-02
-3.56227000 2.04737200e-02
-3.53227000 2.06339300e-02
-3.50227000 2.08129900e-02
-3.47227000 2.10351300e-02
-3.44227000 2.12794700e-02
-3.41227000 2.15624200e-02
-3.38227000 2.18641500e-02
-3.35227000 2.22179500e-02
-3.32227000 2.26119300e-02
-3.29227000 2.28790300e-02
-3.26227000 2.30368400e-02
-3.23227000 2.32460800e-02
-3.20227000 2.35128600e-02
-3.17227000 2.38803300e-02
-3.14227000 2.43307600e-02
-3.11227000 2.48810400e-02
-3.08227000 2.55617800e-02
-3.05227000 2.63568900e-02
-3.02227000 2.72736100e-02
-2.99227000 2.84397900e-02
-2.96227000 2.99863700e-02
-2.93227000 3.20893000e-02
-2.90227000 3.50615000e-02
-2.87227000 3.94973000e-02
-2.84227000 4.66156000e-02
-2.81227000 5.90564000e-02
-2.78227000 8.26514000e-02
-2.75227000 1.25640500e-01
-2.72227000 1.66237700e-01
-2.68736000 1.60204000e-01
-2.65736000 1.49521400e-01
-2.62736000 1.23813200e-01
-2.59736000 9.98962000e-02
-2.56736000 8.62741000e-02
-2.53736000 7.37410000e-02
-2.50736000 6.89860000e-02
-2.47736000 6.71551000e-02
-2.44736000 6.74126000e-02
-2.41736000 7.13298000e-02
-2.38736000 6.74201000e-02
-2.35736000 5.83425000e-02
-2.32736000 5.07395000e-02
-2.29736000 4.70793000e-02
-2.26736000 4.68603000e-02
-2.23736000 4.83903000e-02
-2.20736000 4.86791000e-02
-2.17736000 5.07027000e-02
-2.14736000 5.62158000e-02
-2.11736000 6.49724000e-02
-2.08736000 7.74467000e-02
-2.05736000 8.99027000e-02
-2.02736000 1.05180500e-01
-1.99736000 1.37970100e-01
-1.96736000 1.68048800e-01
-1.93736000 1.38618400e-01
-1.90736000 9.66149000e-02
-1.87736000 7.34696000e-02
-1.84736000 6.41567000e-02
-1.81246000 6.14233000e-02
-1.78246000 5.87688000e-02
-1.75246000 5.32263000e-02
-1.72246000 4.73543000e-02
-1.69246000 4.39744000e-02
-1.66246000 4.23649000e-02
-1.63246000 4.17922000e-02
-1.60246000 4.19409000e-02
-1.57246000 4.27511000e-02
-1.54246000 4.43866000e-02
-1.51246000 4.73506000e-02
-1.48246000 5.28123000e-02
-1.45246000 6.24687000e-02
-1.42246000 7.35571000e-02
-1.39246000 8.23795000e-02
-1.36246000 8.69534000e-02
-1.33246000 8.83942000e-02
-1.30246000 8.95448000e-02
-1.27246000 8.18700000e-02
-1.24246000 7.49760000e-02
-1.21246000 7.24838000e-02
-1.18246000 7.39198000e-02
-1.15246000 7.51489000e-02
-1.12246000 7.58005000e-02
-1.09246000 7.22369000e-02
-1.06246000 6.59070000e-02
-1.03246000 6.40061000e-02
-1.00246000 6.73961000e-02
-0.97245600 7.11931000e-02
-0.93754700 6.68549000e-02
-0.90754700 6.27636000e-02
-0.87754700 6.20780000e-02
-0.84754700 6.43895000e-02
-0.81754700 6.91257000e-02
-0.78754700 7.33691000e-02
-0.75754700 7.38602000e-02
-0.72754700 7.56524000e-02
-0.69754700 8.11351000e-02
-0.66754700 9.11697000e-02
-0.63754700 1.08978500e-01
-0.60754700 1.40242300e-01
-0.57754700 1.85215000e-01
-0.54754700 2.57435600e-01
-0.51754700 3.19509400e-01
-0.48754700 2.62202200e-01
-0.45754700 1.96155100e-01
-0.42754700 1.67597900e-01
-0.39754700 1.45314300e-01
-0.36754700 1.25740000e-01
-0.33754700 1.18477900e-01
-0.30754700 1.14483200e-01
-0.27754700 1.10794200e-01
-0.24754700 1.07666000e-01
-0.21754700 1.01891900e-01
-0.18754700 9.92046000e-02
-0.15754700 1.00179500e-01
-0.12754700 1.04229400e-01
-0.09754710 1.11409100e-01
-0.06263860 1.20077400e-01
-0.03263860 1.23995500e-01
-0.00263857 1.26978500e-01
0.02736140 1.32711100e-01
0.05736140 1.42148300e-01
0.08736140 1.54237400e-01
0.11736100 1.72357100e-01
0.14736100 2.02275400e-01
0.17736100 2.51598000e-01
0.20736100 3.39423600e-01
0.23736100 4.21744000e-01
0.26736100 3.80338200e-01
0.29736100 3.21171200e-01
0.32736100 3.02271600e-01
0.35736100 2.97531400e-01
0.38736100 3.09037600e-01
0.41736100 3.49273000e-01
0.44736100 4.00106000e-01
0.47736100 4.20071000e-01
0.50736100 4.14308000e-01
0.53736100 4.34382000e-01
0.56736100 4.85953000e-01
0.59736100 5.48141000e-01
0.62736100 6.26806000e-01
0.65736100 7.64283000e-01
0.68736100 9.65587000e-01
0.71736100 1.31658000e+00
0.74736100 1.75189400e+00
0.77736100 1.86031500e+00
