# E(MeV)  S_GAMTGAMT(K=1) for Md289_DDPCX
-7.93682000 3.22489000e-03
-7.90682000 3.23718000e-03
-7.87682000 3.24953000e-03
-7.84682000 3.26194000e-03
-7.81682000 3.27442000e-03
-7.78682000 3.28697000e-03
-7.75682000 3.29959000e-03
-7.72682000 3.31227000e-03
-7.69682000 3.32503000e-03
-7.66682000 3.33786000e-03
-7.63682000 3.35076000e-03
-7.60682000 3.36373000e-03
-7.57682000 3.37678000e-03
-7.54682000 3.38990000e-03
-7.51682000 3.40310000e-03
-7.48682000 3.41638000e-03
-7.45682000 3.42973000e-03
-7.42682000 3.44316000e-03
-7.39682000 3.45668000e-03
-7.36682000 3.47028000e-03
-7.33682000 3.48395000e-03
-7.30682000 3.49772000e-03
-7.27682000 3.51157000e-03
-7.24682000 3.52550000e-03
-7.21682000 3.53953000e-03
-7.18682000 3.55364000e-03
-7.15682000 3.56785000e-03
-7.12682000 3.58215000e-03
-7.09682000 3.59655000e-03
-7.06191000 3.61342000e-03
-7.03191000 3.62804000e-03
-7.00191000 3.64275000e-03
-6.97191000 3.65758000e-03
-6.94191000 3.67253000e-03
-6.91191000 3.68760000e-03
-6.88191000 3.70279000e-03
-6.85191000 3.71811000e-03
-6.82191000 3.73360000e-03
-6.79191000 3.74928000e-03
-6.76191000 3.76521000e-03
-6.73191000 3.78145000e-03
-6.70191000 3.79811000e-03
-6.67191000 3.81537000e-03
-6.64191000 3.83388000e-03
-6.61191000 3.85425000e-03
-6.58191000 3.87467000e-03
-6.55191000 3.89516000e-03
-6.52191000 3.92270000e-03
-6.49191000 3.96135000e-03
-6.46191000 3.99029000e-03
-6.43191000 3.98551000e-03
-6.40191000 3.98202000e-03
-6.37191000 3.98840000e-03
-6.34191000 4.00005000e-03
-6.31191000 4.01423000e-03
-6.28191000 4.02973000e-03
-6.25191000 4.04600000e-03
-6.22191000 4.06277000e-03
-6.18700000 4.08274000e-03
-6.15700000 4.10021000e-03
-6.12700000 4.11791000e-03
-6.09700000 4.13581000e-03
-6.06700000 4.15391000e-03
-6.03700000 4.17218000e-03
-6.00700000 4.19063000e-03
-5.97700000 4.20925000e-03
-5.94700000 4.22804000e-03
-5.91700000 4.24700000e-03
-5.88700000 4.26613000e-03
-5.85700000 4.28543000e-03
-5.82700000 4.30490000e-03
-5.79700000 4.32455000e-03
-5.76700000 4.34439000e-03
-5.73700000 4.36441000e-03
-5.70700000 4.38465000e-03
-5.67700000 4.40513000e-03
-5.64700000 4.42588000e-03
-5.61700000 4.44679000e-03
-5.58700000 4.46788000e-03
-5.55700000 4.48950000e-03
-5.52700000 4.51165000e-03
-5.49700000 4.53315000e-03
-5.46700000 4.55407000e-03
-5.43700000 4.57553000e-03
-5.40700000 4.59756000e-03
-5.37700000 4.62005000e-03
-5.34700000 4.64298000e-03
-5.31209000 4.67037000e-03
-5.28209000 4.69483000e-03
-5.25209000 4.72083000e-03
-5.22209000 4.74963000e-03
-5.19209000 4.78018000e-03
-5.16209000 4.80267000e-03
-5.13209000 4.82097000e-03
-5.10209000 4.84260000e-03
-5.07209000 4.86720000e-03
-5.04209000 4.89387000e-03
-5.01209000 4.92120000e-03
-4.98209000 4.94843000e-03
-4.95209000 4.97610000e-03
-4.92209000 5.00561000e-03
-4.89209000 5.03793000e-03
-4.86209000 5.07487000e-03
-4.83209000 5.12175000e-03
-4.80209000 5.18805000e-03
-4.77209000 5.27682000e-03
-4.74209000 5.32744000e-03
-4.71209000 5.34196000e-03
-4.68209000 5.36699000e-03
-4.65209000 5.36440000e-03
-4.62209000 5.37636000e-03
-4.59209000 5.42535000e-03
-4.56209000 5.52432000e-03
-4.53209000 5.67867000e-03
-4.50209000 5.74618000e-03
-4.47209000 5.68689000e-03
-4.43718000 5.66842000e-03
-4.40718000 5.64812000e-03
-4.37718000 5.64397000e-03
-4.34718000 5.67815000e-03
-4.31718000 5.70231000e-03
-4.28718000 5.70003000e-03
-4.25718000 5.70197000e-03
-4.22718000 5.71537000e-03
-4.19718000 5.73884000e-03
-4.16718000 5.76690000e-03
-4.13718000 5.79807000e-03
-4.10718000 5.83187000e-03
-4.07718000 5.86762000e-03
-4.04718000 5.90492000e-03
-4.01718000 5.94371000e-03
-3.98718000 5.98402000e-03
-3.95718000 6.02598000e-03
-3.92718000 6.06978000e-03
-3.89718000 6.11583000e-03
-3.86718000 6.16500000e-03
-3.83718000 6.21883000e-03
-3.80718000 6.28031000e-03
-3.77718000 6.35569000e-03
-3.74718000 6.45733000e-03
-3.71718000 6.60551000e-03
-3.68718000 6.79431000e-03
-3.65718000 6.85003000e-03
-3.62718000 6.76681000e-03
-3.59718000 6.73511000e-03
-3.56227000 6.76685000e-03
-3.53227000 6.81676000e-03
-3.50227000 6.87543000e-03
-3.47227000 6.95042000e-03
-3.44227000 7.03792000e-03
-3.41227000 7.13508000e-03
-3.38227000 7.23081000e-03
-3.35227000 7.34998000e-03
-3.32227000 7.49408000e-03
-3.29227000 7.60193000e-03
-3.26227000 7.65358000e-03
-3.23227000 7.71507000e-03
-3.20227000 7.79149000e-03
-3.17227000 7.90673000e-03
-3.14227000 8.05197000e-03
-3.11227000 8.23245000e-03
-3.08227000 8.46176000e-03
-3.05227000 8.74015000e-03
-3.02227000 9.06227000e-03
-2.99227000 9.47450000e-03
-2.96227000 1.00309000e-02
-2.93227000 1.08022000e-02
-2.90227000 1.19179000e-02
-2.87227000 1.36301000e-02
-2.84227000 1.64573000e-02
-2.81227000 2.15499000e-02
-2.78227000 3.14771000e-02
-2.75227000 4.96252000e-02
-2.72227000 6.39618000e-02
-2.68736000 5.00643000e-02
-2.65736000 3.43204000e-02
-2.62736000 2.54304000e-02
-2.59736000 2.19731000e-02
-2.56736000 1.97644000e-02
-2.53736000 1.78628000e-02
-2.50736000 1.75465000e-02
-2.47736000 1.87143000e-02
-2.44736000 2.18429000e-02
-2.41736000 2.57136000e-02
-2.38736000 2.47914000e-02
-2.35736000 2.10892000e-02
-2.32736000 1.80843000e-02
-2.29736000 1.67401000e-02
-2.26736000 1.68531000e-02
-2.23736000 1.76655000e-02
-2.20736000 1.77148000e-02
-2.17736000 1.84929000e-02
-2.14736000 2.08358000e-02
-2.11736000 2.44859000e-02
-2.08736000 2.94179000e-02
-2.05736000 3.33222000e-02
-2.02736000 3.66043000e-02
-1.99736000 4.54113000e-02
-1.96736000 5.69938000e-02
-1.93736000 4.91608000e-02
-1.90736000 3.41372000e-02
-1.87736000 2.53345000e-02
-1.84736000 2.14498000e-02
-1.81246000 2.02677000e-02
-1.78246000 2.00632000e-02
-1.75246000 1.83963000e-02
-1.72246000 1.61089000e-02
-1.69246000 1.47385000e-02
-1.66246000 1.40567000e-02
-1.63246000 1.37625000e-02
-1.60246000 1.37162000e-02
-1.57246000 1.38677000e-02
-1.54246000 1.42276000e-02
-1.51246000 1.48711000e-02
-1.48246000 1.59867000e-02
-1.45246000 1.80122000e-02
-1.42246000 2.18740000e-02
-1.39246000 2.80733000e-02
-1.36246000 3.14780000e-02
-1.33246000 3.13365000e-02
-1.30246000 2.97885000e-02
-1.27246000 2.58360000e-02
-1.24246000 2.37476000e-02
-1.21246000 2.40741000e-02
-1.18246000 2.58305000e-02
-1.15246000 2.65755000e-02
-1.12246000 2.69992000e-02
-1.09246000 2.59423000e-02
-1.06246000 2.31736000e-02
-1.03246000 2.20741000e-02
-1.00246000 2.31557000e-02
-0.97245600 2.47284000e-02
-0.93754700 2.30269000e-02
-0.90754700 2.12219000e-02
-0.87754700 2.08917000e-02
-0.84754700 2.18528000e-02
-0.81754700 2.38748000e-02
-0.78754700 2.55021000e-02
-0.75754700 2.50223000e-02
-0.72754700 2.48781000e-02
-0.69754700 2.63510000e-02
-0.66754700 2.97455000e-02
-0.63754700 3.60374000e-02
-0.60754700 4.68093000e-02
-0.57754700 5.96957000e-02
-0.54754700 7.84473000e-02
-0.51754700 9.74407000e-02
-0.48754700 8.20429000e-02
-0.45754700 6.19101000e-02
-0.42754700 5.22690000e-02
-0.39754700 4.46952000e-02
-0.36754700 3.91329000e-02
-0.33754700 3.74618000e-02
-0.30754700 3.51202000e-02
-0.27754700 3.17962000e-02
-0.24754700 3.00118000e-02
-0.21754700 2.94710000e-02
-0.18754700 2.97120000e-02
-0.15754700 3.05973000e-02
-0.12754700 3.22493000e-02
-0.09754710 3.48229000e-02
-0.06263860 3.75262000e-02
-0.03263860 3.84807000e-02
-0.00263857 3.88224000e-02
0.02736140 3.99716000e-02
0.05736140 4.27049000e-02
0.08736140 4.60655000e-02
0.11736100 5.06013000e-02
0.14736100 5.76533000e-02
0.17736100 6.75550000e-02
0.20736100 8.47043000e-02
0.23736100 1.02076000e-01
0.26736100 9.69746000e-02
0.29736100 8.75086000e-02
0.32736100 8.62838000e-02
0.35736100 8.43742000e-02
0.38736100 8.36448000e-02
0.41736100 8.96770000e-02
0.44736100 1.02889000e-01
0.47736100 1.13146000e-01
0.50736100 1.14156000e-01
0.53736100 1.20135000e-01
0.56736100 1.32918000e-01
0.59736100 1.41040000e-01
0.62736100 1.49136000e-01
0.65736100 1.69224000e-01
0.68736100 1.98382000e-01
0.71736100 2.43192000e-01
0.74736100 3.19962000e-01
0.77736100 4.35972000e-01
