# E(MeV)  S_NSDRNSDR(K=1) for Mn60_DDPCX
-7.55778000 -2.31528000e-02
-7.52778000 -2.27879000e-02
-7.49778000 -2.24312000e-02
-7.46778000 -2.20823000e-02
-7.43778000 -2.17410000e-02
-7.40778000 -2.14069000e-02
-7.37778000 -2.10798000e-02
-7.34778000 -2.07594000e-02
-7.31778000 -2.04456000e-02
-7.28778000 -2.01380000e-02
-7.25778000 -1.98366000e-02
-7.22778000 -1.95410000e-02
-7.19778000 -1.92510000e-02
-7.16778000 -1.89666000e-02
-7.13778000 -1.86874000e-02
-7.10778000 -1.84134000e-02
-7.07778000 -1.81444000e-02
-7.04778000 -1.78802000e-02
-7.01778000 -1.76207000e-02
-6.98778000 -1.73657000e-02
-6.95778000 -1.71151000e-02
-6.92778000 -1.68687000e-02
-6.89778000 -1.66266000e-02
-6.86778000 -1.63884000e-02
-6.83778000 -1.61542000e-02
-6.80778000 -1.59237000e-02
-6.77778000 -1.56970000e-02
-6.72078000 -1.52759000e-02
-6.69078000 -1.50593000e-02
-6.66078000 -1.48460000e-02
-6.63078000 -1.46359000e-02
-6.60078000 -1.44290000e-02
-6.57078000 -1.42251000e-02
-6.54078000 -1.40242000e-02
-6.51078000 -1.38262000e-02
-6.48078000 -1.36311000e-02
-6.45078000 -1.34387000e-02
-6.42078000 -1.32489000e-02
-6.39078000 -1.30619000e-02
-6.36078000 -1.28773000e-02
-6.33078000 -1.26953000e-02
-6.30078000 -1.25157000e-02
-6.27078000 -1.23385000e-02
-6.24078000 -1.21636000e-02
-6.21078000 -1.19909000e-02
-6.18078000 -1.18205000e-02
-6.15078000 -1.16522000e-02
-6.12078000 -1.14860000e-02
-6.09078000 -1.13219000e-02
-6.06078000 -1.11598000e-02
-6.03078000 -1.09997000e-02
-6.00078000 -1.08415000e-02
-5.97078000 -1.06852000e-02
-5.94078000 -1.05307000e-02
-5.88377000 -1.02420000e-02
-5.85377000 -1.00926000e-02
-5.82377000 -9.94483000e-03
-5.79377000 -9.79873000e-03
-5.76377000 -9.65424000e-03
-5.73377000 -9.51131000e-03
-5.70377000 -9.36992000e-03
-5.67377000 -9.23002000e-03
-5.64377000 -9.09159000e-03
-5.61377000 -8.95459000e-03
-5.58377000 -8.81898000e-03
-5.55377000 -8.68475000e-03
-5.52377000 -8.55185000e-03
-5.49377000 -8.42026000e-03
-5.46377000 -8.28994000e-03
-5.43377000 -8.16087000e-03
-5.40377000 -8.03301000e-03
-5.37377000 -7.90635000e-03
-5.34377000 -7.78084000e-03
-5.31377000 -7.65647000e-03
-5.28377000 -7.53319000e-03
-5.25377000 -7.41100000e-03
-5.22377000 -7.28985000e-03
-5.19377000 -7.16972000e-03
-5.16377000 -7.05059000e-03
-5.13377000 -6.93242000e-03
-5.10377000 -6.81519000e-03
-5.04677000 -6.59493000e-03
-5.01677000 -6.48026000e-03
-4.98677000 -6.36643000e-03
-4.95677000 -6.25339000e-03
-4.92677000 -6.14113000e-03
-4.89677000 -6.02960000e-03
-4.86677000 -5.91879000e-03
-4.83677000 -5.80865000e-03
-4.80677000 -5.69915000e-03
-4.77677000 -5.59027000e-03
-4.74677000 -5.48195000e-03
-4.71677000 -5.37418000e-03
-4.68677000 -5.26689000e-03
-4.65677000 -5.16006000e-03
-4.62677000 -5.05364000e-03
-4.59677000 -4.94757000e-03
-4.56677000 -4.84181000e-03
-4.53677000 -4.73630000e-03
-4.50677000 -4.63098000e-03
-4.47677000 -4.52578000e-03
-4.44677000 -4.42063000e-03
-4.41677000 -4.31544000e-03
-4.38677000 -4.21012000e-03
-4.35677000 -4.10458000e-03
-4.32677000 -3.99870000e-03
-4.29677000 -3.89235000e-03
-4.26677000 -3.78538000e-03
-4.20976000 -3.57981000e-03
-4.17976000 -3.47002000e-03
-4.14976000 -3.35880000e-03
-4.11976000 -3.24587000e-03
-4.08976000 -3.13085000e-03
-4.05976000 -3.01336000e-03
-4.02976000 -2.89288000e-03
-3.99976000 -2.76883000e-03
-3.96976000 -2.64049000e-03
-3.93976000 -2.50697000e-03
-3.90976000 -2.36720000e-03
-3.87976000 -2.21982000e-03
-3.84976000 -2.06313000e-03
-3.81976000 -1.89498000e-03
-3.78976000 -1.71258000e-03
-3.75976000 -1.51228000e-03
-3.72976000 -1.28927000e-03
-3.69976000 -1.03703000e-03
-3.66976000 -7.46617000e-04
-3.63976000 -4.05470000e-04
-3.60976000 4.48133000e-06
-3.57976000 5.09959000e-04
-3.54976000 1.15177000e-03
-3.51976000 1.99459000e-03
-3.48976000 3.14559000e-03
-3.45976000 4.79175000e-03
-3.42976000 7.28026000e-03
-3.37276000 1.74444000e-02
-3.34276000 3.00515000e-02
-3.31276000 5.51200000e-02
-3.28276000 9.32762000e-02
-3.25276000 9.53132000e-02
-3.22276000 5.74841000e-02
-3.19276000 3.15388000e-02
-3.16276000 1.85397000e-02
-3.13276000 1.17976000e-02
-3.10276000 8.00532000e-03
-3.07276000 5.71201000e-03
-3.04276000 4.24349000e-03
-3.01276000 3.26102000e-03
-2.98276000 2.58170000e-03
-2.95276000 2.10051000e-03
-2.92276000 1.75393000e-03
-2.89276000 1.50186000e-03
-2.86276000 1.31800000e-03
-2.83276000 1.18455000e-03
-2.80276000 1.08914000e-03
-2.77276000 1.02294000e-03
-2.74276000 9.79538000e-04
-2.71276000 9.54184000e-04
-2.68276000 9.43297000e-04
-2.65276000 9.44137000e-04
-2.62276000 9.54585000e-04
-2.59276000 9.72978000e-04
-2.53575000 1.02532000e-03
-2.50575000 1.06020000e-03
-2.47575000 1.09919000e-03
-2.44575000 1.14169000e-03
-2.41575000 1.18725000e-03
-2.38575000 1.23547000e-03
-2.35575000 1.28601000e-03
-2.32575000 1.33862000e-03
-2.29575000 1.39306000e-03
-2.26575000 1.44915000e-03
-2.23575000 1.50673000e-03
-2.20575000 1.56566000e-03
-2.17575000 1.62584000e-03
-2.14575000 1.68717000e-03
-2.11575000 1.74959000e-03
-2.08575000 1.81304000e-03
-2.05575000 1.87746000e-03
-2.02575000 1.94283000e-03
-1.99575000 2.00912000e-03
-1.96575000 2.07633000e-03
-1.93575000 2.14445000e-03
-1.90575000 2.21349000e-03
-1.87575000 2.28347000e-03
-1.84575000 2.35441000e-03
-1.81575000 2.42635000e-03
-1.78575000 2.49934000e-03
-1.75575000 2.57343000e-03
-1.69875000 2.71755000e-03
-1.66875000 2.79531000e-03
-1.63875000 2.87454000e-03
-1.60875000 2.95536000e-03
-1.57875000 3.03795000e-03
-1.54875000 3.12246000e-03
-1.51875000 3.20913000e-03
-1.48875000 3.29819000e-03
-1.45875000 3.38992000e-03
-1.42875000 3.48467000e-03
-1.39875000 3.58282000e-03
-1.36875000 3.68485000e-03
-1.33875000 3.79130000e-03
-1.30875000 3.90282000e-03
-1.27875000 4.02022000e-03
-1.24875000 4.14444000e-03
-1.21875000 4.27665000e-03
-1.18875000 4.41825000e-03
-1.15875000 4.57102000e-03
-1.12875000 4.73714000e-03
-1.09875000 4.91937000e-03
-1.06875000 5.12124000e-03
-1.03875000 5.34730000e-03
-1.00875000 5.60349000e-03
-0.97874600 5.89772000e-03
-0.94874600 6.24065000e-03
-0.91874600 6.64697000e-03
-0.86174100 7.67503000e-03
-0.83174100 8.41891000e-03
-0.80174100 9.38017000e-03
-0.77174100 1.06612000e-02
-0.74174100 1.24316000e-02
-0.71174100 1.49865000e-02
-0.68174100 1.88736000e-02
-0.65174100 2.51839000e-02
-0.62174100 3.62680000e-02
-0.59174100 5.74859000e-02
-0.56174100 9.96107000e-02
-0.53174100 1.60195000e-01
-0.50174100 1.55549000e-01
-0.47174100 9.46961000e-02
-0.44174100 5.52066000e-02
-0.41174100 3.54570000e-02
-0.38174100 2.51344000e-02
-0.35174100 1.92776000e-02
-0.32174100 1.57061000e-02
-0.29174100 1.34009000e-02
-0.26174100 1.18471000e-02
-0.23174100 1.07656000e-02
-0.20174100 9.99573000e-03
-0.17174100 9.44024000e-03
-0.14174100 9.03808000e-03
-0.11174100 8.74964000e-03
-0.08174050 8.54878000e-03
-0.02473530 8.35138000e-03
0.00526473 8.32733000e-03
0.03526470 8.35322000e-03
0.06526470 8.42967000e-03
0.09526470 8.56137000e-03
0.12526500 8.75824000e-03
0.15526500 9.03773000e-03
0.18526500 9.42924000e-03
0.21526500 9.98250000e-03
0.24526500 1.07844000e-02
0.27526500 1.19947000e-02
0.30526500 1.39260000e-02
0.33526500 1.72378000e-02
0.36526500 2.33983000e-02
0.39526500 3.55571000e-02
0.42526500 5.63658000e-02
0.45526500 6.48446000e-02
0.48526500 4.51480000e-02
0.51526500 2.85869000e-02
0.54526500 2.01727000e-02
0.57526500 1.59095000e-02
0.60526500 1.35904000e-02
0.63526500 1.22491000e-02
0.66526500 1.14453000e-02
0.69526500 1.09637000e-02
0.72526500 1.06924000e-02
0.75526500 1.05719000e-02
