# E(MeV)  S_GAMTGAMT(K=1) for Mn60_DDPCX
-7.55778000 -9.57492000e-04
-7.52778000 -1.13931000e-03
-7.49778000 -1.35200000e-03
-7.46778000 -1.60239000e-03
-7.43778000 -1.89937000e-03
-7.40778000 -2.25467000e-03
-7.37778000 -2.68403000e-03
-7.34778000 -3.20902000e-03
-7.31778000 -3.85996000e-03
-7.28778000 -4.68072000e-03
-7.25778000 -5.73698000e-03
-7.22778000 -7.13162000e-03
-7.19778000 -9.03473000e-03
-7.16778000 -1.17475000e-02
-7.13778000 -1.58490000e-02
-7.10778000 -2.25373000e-02
-7.07778000 -3.41265000e-02
-7.04778000 -5.11537000e-02
-7.01778000 -6.18965000e-02
-6.98778000 -7.24260000e-02
-6.95778000 -1.05035000e-01
-6.92778000 -1.79703000e-01
-6.89778000 -2.97940000e-01
-6.86778000 -3.06213000e-01
-6.83778000 -1.86472000e-01
-6.80778000 -1.03283000e-01
-6.77778000 -6.13673000e-02
-6.72078000 -2.79979000e-02
-6.69078000 -1.99918000e-02
-6.66078000 -1.47827000e-02
-6.63078000 -1.12133000e-02
-6.60078000 -8.66237000e-03
-6.57078000 -6.77488000e-03
-6.54078000 -5.33701000e-03
-6.51078000 -4.21401000e-03
-6.48078000 -3.31771000e-03
-6.45078000 -2.58851000e-03
-6.42078000 -1.98496000e-03
-6.39078000 -1.47751000e-03
-6.36078000 -1.04463000e-03
-6.33078000 -6.70336000e-04
-6.30078000 -3.42522000e-04
-6.27078000 -5.18850000e-05
-6.24078000 2.08839000e-04
-6.21078000 4.45408000e-04
-6.18078000 6.62448000e-04
-6.15078000 8.63732000e-04
-6.12078000 1.05238000e-03
-6.09078000 1.23102000e-03
-6.06078000 1.40188000e-03
-6.03078000 1.56691000e-03
-6.00078000 1.72782000e-03
-5.97078000 1.88617000e-03
-5.94078000 2.04337000e-03
-5.88377000 2.34374000e-03
-5.85377000 2.50512000e-03
-5.82377000 2.67045000e-03
-5.79377000 2.84106000e-03
-5.76377000 3.01837000e-03
-5.73377000 3.20387000e-03
-5.70377000 3.39920000e-03
-5.67377000 3.60619000e-03
-5.64377000 3.82688000e-03
-5.61377000 4.06360000e-03
-5.58377000 4.31903000e-03
-5.55377000 4.59628000e-03
-5.52377000 4.89903000e-03
-5.49377000 5.23162000e-03
-5.46377000 5.59925000e-03
-5.43377000 6.00821000e-03
-5.40377000 6.46617000e-03
-5.37377000 6.98259000e-03
-5.34377000 7.56922000e-03
-5.31377000 8.24086000e-03
-5.28377000 9.01636000e-03
-5.25377000 9.92002000e-03
-5.22377000 1.09836000e-02
-5.19377000 1.22493000e-02
-5.16377000 1.37742000e-02
-5.13377000 1.56367000e-02
-5.10377000 1.79473000e-02
-5.04677000 2.42044000e-02
-5.01677000 2.90300000e-02
-4.98677000 3.55665000e-02
-4.95677000 4.47237000e-02
-4.92677000 5.80894000e-02
-4.89677000 7.86121000e-02
-4.86677000 1.12178000e-01
-4.83677000 1.71496000e-01
-4.80677000 2.85551000e-01
-4.77677000 5.11998000e-01
-4.74677000 8.31237000e-01
-4.71677000 7.92936000e-01
-4.68677000 4.70392000e-01
-4.65677000 2.64345000e-01
-4.62677000 1.61195000e-01
-4.59677000 1.07018000e-01
-4.56677000 7.60765000e-02
-4.53677000 5.70465000e-02
-4.50677000 4.46259000e-02
-4.47677000 3.61296000e-02
-4.44677000 3.00986000e-02
-4.41677000 2.56903000e-02
-4.38677000 2.23935000e-02
-4.35677000 1.98844000e-02
-4.32677000 1.79504000e-02
-4.29677000 1.64479000e-02
-4.26677000 1.52774000e-02
-4.20976000 1.37328000e-02
-4.17976000 1.31945000e-02
-4.14976000 1.28072000e-02
-4.11976000 1.25516000e-02
-4.08976000 1.24140000e-02
-4.05976000 1.23857000e-02
-4.02976000 1.24620000e-02
-3.99976000 1.26417000e-02
-3.96976000 1.29273000e-02
-3.93976000 1.33247000e-02
-3.90976000 1.38440000e-02
-3.87976000 1.45001000e-02
-3.84976000 1.53137000e-02
-3.81976000 1.63134000e-02
-3.78976000 1.75386000e-02
-3.75976000 1.90431000e-02
-3.72976000 2.09021000e-02
-3.69976000 2.32224000e-02
-3.66976000 2.61590000e-02
-3.63976000 2.99443000e-02
-3.60976000 3.49380000e-02
-3.57976000 4.17216000e-02
-3.54976000 5.12825000e-02
-3.51976000 6.53997000e-02
-3.48976000 8.75105000e-02
-3.45976000 1.24799000e-01
-3.42976000 1.93401000e-01
-3.37276000 5.39070000e-01
-3.34276000 6.88029000e-01
-3.31276000 4.92051000e-01
-3.28276000 2.92150000e-01
-3.25276000 1.91791000e-01
-3.22276000 1.46440000e-01
-3.19276000 1.29013000e-01
-3.16276000 1.28980000e-01
-3.13276000 1.44078000e-01
-3.10276000 1.77939000e-01
-3.07276000 2.42167000e-01
-3.04276000 3.64786000e-01
-3.01276000 6.10799000e-01
-2.98276000 1.08527000e+00
-2.95276000 1.55078000e+00
-2.92276000 1.21258000e+00
-2.89276000 6.85542000e-01
-2.86276000 3.94670000e-01
-2.83276000 2.48075000e-01
-2.80276000 1.68667000e-01
-2.77276000 1.21890000e-01
-2.74276000 9.23073000e-02
-2.71276000 7.25013000e-02
-2.68276000 5.86206000e-02
-2.65276000 4.85255000e-02
-2.62276000 4.09570000e-02
-2.59276000 3.51372000e-02
-2.53575000 2.72403000e-02
-2.50575000 2.42094000e-02
-2.47575000 2.17166000e-02
-2.44575000 1.96419000e-02
-2.41575000 1.78970000e-02
-2.38575000 1.64158000e-02
-2.35575000 1.51483000e-02
-2.32575000 1.40557000e-02
-2.29575000 1.31078000e-02
-2.26575000 1.22807000e-02
-2.23575000 1.15554000e-02
-2.20575000 1.09165000e-02
-2.17575000 1.03515000e-02
-2.14575000 9.85010000e-03
-2.11575000 9.40388000e-03
-2.08575000 9.00580000e-03
-2.05575000 8.64996000e-03
-2.02575000 8.33144000e-03
-1.99575000 8.04608000e-03
-1.96575000 7.79037000e-03
-1.93575000 7.56135000e-03
-1.90575000 7.35652000e-03
-1.87575000 7.17378000e-03
-1.84575000 7.01140000e-03
-1.81575000 6.86798000e-03
-1.78575000 6.74243000e-03
-1.75575000 6.63398000e-03
-1.69875000 6.47393000e-03
-1.66875000 6.41441000e-03
-1.63875000 6.37332000e-03
-1.60875000 6.35305000e-03
-1.57875000 6.35781000e-03
-1.54875000 6.39503000e-03
-1.51875000 6.47815000e-03
-1.48875000 6.63271000e-03
-1.45875000 6.91065000e-03
-1.42875000 7.42577000e-03
-1.39875000 8.43753000e-03
-1.36875000 1.04114000e-02
-1.33875000 1.27284000e-02
-1.30875000 1.17512000e-02
-1.27875000 9.40603000e-03
-1.24875000 8.08923000e-03
-1.21875000 7.48457000e-03
-1.18875000 7.22364000e-03
-1.15875000 7.13968000e-03
-1.12875000 7.16076000e-03
-1.09875000 7.25514000e-03
-1.06875000 7.40954000e-03
-1.03875000 7.62037000e-03
-1.00875000 7.89035000e-03
-0.97874600 8.22734000e-03
-0.94874600 8.64471000e-03
-0.91874600 9.16296000e-03
-0.86174100 1.05493000e-02
-0.83174100 1.16035000e-02
-0.80174100 1.30266000e-02
-0.77174100 1.50460000e-02
-0.74174100 1.81109000e-02
-0.71174100 2.29783000e-02
-0.68174100 2.92011000e-02
-0.65174100 3.37082000e-02
-0.62174100 4.06182000e-02
-0.59174100 5.56431000e-02
-0.56174100 8.61411000e-02
-0.53174100 1.47846000e-01
-0.50174100 2.43219000e-01
-0.47174100 2.51226000e-01
-0.44174100 1.57508000e-01
-0.41174100 9.30271000e-02
-0.38174100 6.20888000e-02
-0.35174100 4.87804000e-02
-0.32174100 4.66344000e-02
-0.29174100 5.22154000e-02
-0.26174100 4.94409000e-02
-0.23174100 3.61541000e-02
-0.20174100 2.72151000e-02
-0.17174100 2.27754000e-02
-0.14174100 2.07812000e-02
-0.11174100 2.02844000e-02
-0.08174050 2.10170000e-02
-0.02473530 2.68483000e-02
0.00526473 3.44168000e-02
0.03526470 4.92879000e-02
0.06526470 7.93288000e-02
0.09526470 1.26617000e-01
0.12526500 1.32556000e-01
0.15526500 8.58497000e-02
0.18526500 5.27123000e-02
0.21526500 3.61614000e-02
0.24526500 2.77252000e-02
0.27526500 2.31405000e-02
0.30526500 2.05415000e-02
0.33526500 1.90693000e-02
0.36526500 1.82994000e-02
0.39526500 1.80111000e-02
0.42526500 1.80870000e-02
0.45526500 1.84681000e-02
0.48526500 1.91320000e-02
0.51526500 2.00828000e-02
0.54526500 2.13487000e-02
0.57526500 2.29830000e-02
0.60526500 2.50700000e-02
0.63526500 2.77376000e-02
0.66526500 3.11775000e-02
0.69526500 3.56822000e-02
0.72526500 4.17098000e-02
0.75526500 5.00062000e-02
