# E(MeV)  S_NSDRNSDR(K=0) for Mn60_DDPCX
-7.55778000 -1.51079000e-02
-7.52778000 -1.49102000e-02
-7.49778000 -1.47155000e-02
-7.46778000 -1.45239000e-02
-7.43778000 -1.43353000e-02
-7.40778000 -1.41496000e-02
-7.37778000 -1.39667000e-02
-7.34778000 -1.37865000e-02
-7.31778000 -1.36090000e-02
-7.28778000 -1.34341000e-02
-7.25778000 -1.32618000e-02
-7.22778000 -1.30919000e-02
-7.19778000 -1.29245000e-02
-7.16778000 -1.27594000e-02
-7.13778000 -1.25966000e-02
-7.10778000 -1.24361000e-02
-7.07778000 -1.22778000e-02
-7.04778000 -1.21216000e-02
-7.01778000 -1.19675000e-02
-6.98778000 -1.18155000e-02
-6.95778000 -1.16655000e-02
-6.92778000 -1.15174000e-02
-6.89778000 -1.13713000e-02
-6.86778000 -1.12270000e-02
-6.83778000 -1.10845000e-02
-6.80778000 -1.09439000e-02
-6.77778000 -1.08049000e-02
-6.72078000 -1.05457000e-02
-6.69078000 -1.04116000e-02
-6.66078000 -1.02792000e-02
-6.63078000 -1.01483000e-02
-6.60078000 -1.00190000e-02
-6.57078000 -9.89121000e-03
-6.54078000 -9.76488000e-03
-6.51078000 -9.64001000e-03
-6.48078000 -9.51655000e-03
-6.45078000 -9.39448000e-03
-6.42078000 -9.27378000e-03
-6.39078000 -9.15442000e-03
-6.36078000 -9.03636000e-03
-6.33078000 -8.91958000e-03
-6.30078000 -8.80407000e-03
-6.27078000 -8.68979000e-03
-6.24078000 -8.57671000e-03
-6.21078000 -8.46483000e-03
-6.18078000 -8.35410000e-03
-6.15078000 -8.24452000e-03
-6.12078000 -8.13606000e-03
-6.09078000 -8.02869000e-03
-6.06078000 -7.92240000e-03
-6.03078000 -7.81717000e-03
-6.00078000 -7.71297000e-03
-5.97078000 -7.60980000e-03
-5.94078000 -7.50762000e-03
-5.88377000 -7.31614000e-03
-5.85377000 -7.21676000e-03
-5.82377000 -7.11830000e-03
-5.79377000 -7.02075000e-03
-5.76377000 -6.92410000e-03
-5.73377000 -6.82832000e-03
-5.70377000 -6.73341000e-03
-5.67377000 -6.63934000e-03
-5.64377000 -6.54611000e-03
-5.61377000 -6.45369000e-03
-5.58377000 -6.36207000e-03
-5.55377000 -6.27124000e-03
-5.52377000 -6.18118000e-03
-5.49377000 -6.09188000e-03
-5.46377000 -6.00333000e-03
-5.43377000 -5.91551000e-03
-5.40377000 -5.82840000e-03
-5.37377000 -5.74200000e-03
-5.34377000 -5.65629000e-03
-5.31377000 -5.57126000e-03
-5.28377000 -5.48690000e-03
-5.25377000 -5.40319000e-03
-5.22377000 -5.32013000e-03
-5.19377000 -5.23770000e-03
-5.16377000 -5.15589000e-03
-5.13377000 -5.07468000e-03
-5.10377000 -4.99407000e-03
-5.04677000 -4.84251000e-03
-5.01677000 -4.76356000e-03
-4.98677000 -4.68518000e-03
-4.95677000 -4.60733000e-03
-4.92677000 -4.53002000e-03
-4.89677000 -4.45323000e-03
-4.86677000 -4.37694000e-03
-4.83677000 -4.30116000e-03
-4.80677000 -4.22587000e-03
-4.77677000 -4.15106000e-03
-4.74677000 -4.07672000e-03
-4.71677000 -4.00283000e-03
-4.68677000 -3.92940000e-03
-4.65677000 -3.85640000e-03
-4.62677000 -3.78383000e-03
-4.59677000 -3.71168000e-03
-4.56677000 -3.63994000e-03
-4.53677000 -3.56859000e-03
-4.50677000 -3.49762000e-03
-4.47677000 -3.42704000e-03
-4.44677000 -3.35681000e-03
-4.41677000 -3.28694000e-03
-4.38677000 -3.21742000e-03
-4.35677000 -3.14822000e-03
-4.32677000 -3.07934000e-03
-4.29677000 -3.01077000e-03
-4.26677000 -2.94249000e-03
-4.20976000 -2.81351000e-03
-4.17976000 -2.74601000e-03
-4.14976000 -2.67876000e-03
-4.11976000 -2.61173000e-03
-4.08976000 -2.54491000e-03
-4.05976000 -2.47829000e-03
-4.02976000 -2.41185000e-03
-3.99976000 -2.34557000e-03
-3.96976000 -2.27943000e-03
-3.93976000 -2.21341000e-03
-3.90976000 -2.14749000e-03
-3.87976000 -2.08165000e-03
-3.84976000 -2.01587000e-03
-3.81976000 -1.95011000e-03
-3.78976000 -1.88434000e-03
-3.75976000 -1.81854000e-03
-3.72976000 -1.75268000e-03
-3.69976000 -1.68671000e-03
-3.66976000 -1.62059000e-03
-3.63976000 -1.55429000e-03
-3.60976000 -1.48774000e-03
-3.57976000 -1.42090000e-03
-3.54976000 -1.35370000e-03
-3.51976000 -1.28608000e-03
-3.48976000 -1.21796000e-03
-3.45976000 -1.14926000e-03
-3.42976000 -1.07987000e-03
-3.37276000 -9.45728000e-04
-3.34276000 -8.73679000e-04
-3.31276000 -8.00419000e-04
-3.28276000 -7.25762000e-04
-3.25276000 -6.49488000e-04
-3.22276000 -5.71344000e-04
-3.19276000 -4.91031000e-04
-3.16276000 -4.08197000e-04
-3.13276000 -3.22424000e-04
-3.10276000 -2.33215000e-04
-3.07276000 -1.39969000e-04
-3.04276000 -4.19617000e-05
-3.01276000 6.16947000e-05
-2.98276000 1.72090000e-04
-2.95276000 2.90581000e-04
-2.92276000 4.18867000e-04
-2.89276000 5.59105000e-04
-2.86276000 7.14065000e-04
-2.83276000 8.87347000e-04
-2.80276000 1.08370000e-03
-2.77276000 1.30950000e-03
-2.74276000 1.57344000e-03
-2.71276000 1.88764000e-03
-2.68276000 2.26937000e-03
-2.65276000 2.74391000e-03
-2.62276000 3.34942000e-03
-2.59276000 4.14553000e-03
-2.53575000 6.58618000e-03
-2.50575000 8.78407000e-03
-2.47575000 1.22440000e-02
-2.44575000 1.81030000e-02
-2.41575000 2.89078000e-02
-2.38575000 5.03419000e-02
-2.35575000 8.91821000e-02
-2.32575000 1.14087000e-01
-2.29575000 7.96735000e-02
-2.26575000 4.45512000e-02
-2.23575000 2.62320000e-02
-2.20575000 1.69440000e-02
-2.17575000 1.18556000e-02
-2.14575000 8.83919000e-03
-2.11575000 6.93192000e-03
-2.08575000 5.66328000e-03
-2.05575000 4.78544000e-03
-2.02575000 4.15905000e-03
-1.99575000 3.70130000e-03
-1.96575000 3.36068000e-03
-1.93575000 3.10381000e-03
-1.90575000 2.90837000e-03
-1.87575000 2.75897000e-03
-1.84575000 2.64474000e-03
-1.81575000 2.55781000e-03
-1.78575000 2.49240000e-03
-1.75575000 2.44417000e-03
-1.69875000 2.38865000e-03
-1.66875000 2.37412000e-03
-1.63875000 2.36749000e-03
-1.60875000 2.36748000e-03
-1.57875000 2.37306000e-03
-1.54875000 2.38337000e-03
-1.51875000 2.39775000e-03
-1.48875000 2.41560000e-03
-1.45875000 2.43647000e-03
-1.42875000 2.45996000e-03
-1.39875000 2.48573000e-03
-1.36875000 2.51350000e-03
-1.33875000 2.54304000e-03
-1.30875000 2.57413000e-03
-1.27875000 2.60661000e-03
-1.24875000 2.64032000e-03
-1.21875000 2.67514000e-03
-1.18875000 2.71094000e-03
-1.15875000 2.74764000e-03
-1.12875000 2.78514000e-03
-1.09875000 2.82337000e-03
-1.06875000 2.86226000e-03
-1.03875000 2.90176000e-03
-1.00875000 2.94182000e-03
-0.97874600 2.98239000e-03
-0.94874600 3.02343000e-03
-0.91874600 3.06490000e-03
-0.86174100 3.14481000e-03
-0.83174100 3.18738000e-03
-0.80174100 3.23030000e-03
-0.77174100 3.27352000e-03
-0.74174100 3.31705000e-03
-0.71174100 3.36087000e-03
-0.68174100 3.40496000e-03
-0.65174100 3.44931000e-03
-0.62174100 3.49391000e-03
-0.59174100 3.53877000e-03
-0.56174100 3.58386000e-03
-0.53174100 3.62920000e-03
-0.50174100 3.67477000e-03
-0.47174100 3.72058000e-03
-0.44174100 3.76662000e-03
-0.41174100 3.81291000e-03
-0.38174100 3.85944000e-03
-0.35174100 3.90623000e-03
-0.32174100 3.95328000e-03
-0.29174100 4.00061000e-03
-0.26174100 4.04824000e-03
-0.23174100 4.09619000e-03
-0.20174100 4.14449000e-03
-0.17174100 4.19320000e-03
-0.14174100 4.24236000e-03
-0.11174100 4.29205000e-03
-0.08174050 4.34239000e-03
-0.02473530 4.44047000e-03
0.00526473 4.49390000e-03
0.03526470 4.54925000e-03
0.06526470 4.60744000e-03
0.09526470 4.67010000e-03
0.12526500 4.74034000e-03
0.15526500 4.82449000e-03
0.18526500 4.93654000e-03
0.21526500 5.10823000e-03
0.24526500 5.39003000e-03
0.27526500 5.66376000e-03
0.30526500 5.55065000e-03
0.33526500 5.35219000e-03
0.36526500 5.26753000e-03
0.39526500 5.25201000e-03
0.42526500 5.26900000e-03
0.45526500 5.30211000e-03
0.48526500 5.34406000e-03
0.51526500 5.39138000e-03
0.54526500 5.44231000e-03
0.57526500 5.49591000e-03
0.60526500 5.55167000e-03
0.63526500 5.60931000e-03
0.66526500 5.66871000e-03
0.69526500 5.72984000e-03
0.72526500 5.79273000e-03
0.75526500 5.85747000e-03
