# E(MeV)  S_NSDRNSDR(Total=K0+2*K1) for Mn60_DDPCX
-7.55778000 -6.14135000e-02
-7.52778000 -6.04860000e-02
-7.49778000 -5.95779000e-02
-7.46778000 -5.86885000e-02
-7.43778000 -5.78173000e-02
-7.40778000 -5.69634000e-02
-7.37778000 -5.61263000e-02
-7.34778000 -5.53053000e-02
-7.31778000 -5.45002000e-02
-7.28778000 -5.37101000e-02
-7.25778000 -5.29350000e-02
-7.22778000 -5.21739000e-02
-7.19778000 -5.14265000e-02
-7.16778000 -5.06926000e-02
-7.13778000 -4.99714000e-02
-7.10778000 -4.92629000e-02
-7.07778000 -4.85666000e-02
-7.04778000 -4.78820000e-02
-7.01778000 -4.72089000e-02
-6.98778000 -4.65469000e-02
-6.95778000 -4.58957000e-02
-6.92778000 -4.52548000e-02
-6.89778000 -4.46245000e-02
-6.86778000 -4.40038000e-02
-6.83778000 -4.33929000e-02
-6.80778000 -4.27913000e-02
-6.77778000 -4.21989000e-02
-6.72078000 -4.10975000e-02
-6.69078000 -4.05302000e-02
-6.66078000 -3.99712000e-02
-6.63078000 -3.94201000e-02
-6.60078000 -3.88770000e-02
-6.57078000 -3.83414100e-02
-6.54078000 -3.78132800e-02
-6.51078000 -3.72924100e-02
-6.48078000 -3.67787500e-02
-6.45078000 -3.62718800e-02
-6.42078000 -3.57715800e-02
-6.39078000 -3.52782200e-02
-6.36078000 -3.47909600e-02
-6.33078000 -3.43101800e-02
-6.30078000 -3.38354700e-02
-6.27078000 -3.33667900e-02
-6.24078000 -3.29039100e-02
-6.21078000 -3.24466300e-02
-6.18078000 -3.19951000e-02
-6.15078000 -3.15489200e-02
-6.12078000 -3.11080600e-02
-6.09078000 -3.06724900e-02
-6.06078000 -3.02420000e-02
-6.03078000 -2.98165700e-02
-6.00078000 -2.93959700e-02
-5.97078000 -2.89802000e-02
-5.94078000 -2.85690200e-02
-5.88377000 -2.78001400e-02
-5.85377000 -2.74019600e-02
-5.82377000 -2.70079600e-02
-5.79377000 -2.66182100e-02
-5.76377000 -2.62325800e-02
-5.73377000 -2.58509400e-02
-5.70377000 -2.54732500e-02
-5.67377000 -2.50993800e-02
-5.64377000 -2.47292900e-02
-5.61377000 -2.43628700e-02
-5.58377000 -2.40000300e-02
-5.55377000 -2.36407400e-02
-5.52377000 -2.32848800e-02
-5.49377000 -2.29324000e-02
-5.46377000 -2.25832100e-02
-5.43377000 -2.22372500e-02
-5.40377000 -2.18944200e-02
-5.37377000 -2.15547000e-02
-5.34377000 -2.12179700e-02
-5.31377000 -2.08842000e-02
-5.28377000 -2.05532800e-02
-5.25377000 -2.02251900e-02
-5.22377000 -1.98998300e-02
-5.19377000 -1.95771400e-02
-5.16377000 -1.92570700e-02
-5.13377000 -1.89395200e-02
-5.10377000 -1.86244500e-02
-5.04677000 -1.80323700e-02
-5.01677000 -1.77240800e-02
-4.98677000 -1.74180400e-02
-4.95677000 -1.71141100e-02
-4.92677000 -1.68122800e-02
-4.89677000 -1.65124300e-02
-4.86677000 -1.62145200e-02
-4.83677000 -1.59184600e-02
-4.80677000 -1.56241700e-02
-4.77677000 -1.53316000e-02
-4.74677000 -1.50406200e-02
-4.71677000 -1.47511900e-02
-4.68677000 -1.44631800e-02
-4.65677000 -1.41765200e-02
-4.62677000 -1.38911100e-02
-4.59677000 -1.36068200e-02
-4.56677000 -1.33235600e-02
-4.53677000 -1.30411900e-02
-4.50677000 -1.27595800e-02
-4.47677000 -1.24786000e-02
-4.44677000 -1.21980700e-02
-4.41677000 -1.19178200e-02
-4.38677000 -1.16376600e-02
-4.35677000 -1.13573800e-02
-4.32677000 -1.10767400e-02
-4.29677000 -1.07954700e-02
-4.26677000 -1.05132500e-02
-4.20976000 -9.97313000e-03
-4.17976000 -9.68605000e-03
-4.14976000 -9.39636000e-03
-4.11976000 -9.10347000e-03
-4.08976000 -8.80661000e-03
-4.05976000 -8.50501000e-03
-4.02976000 -8.19761000e-03
-3.99976000 -7.88323000e-03
-3.96976000 -7.56041000e-03
-3.93976000 -7.22735000e-03
-3.90976000 -6.88189000e-03
-3.87976000 -6.52129000e-03
-3.84976000 -6.14213000e-03
-3.81976000 -5.74007000e-03
-3.78976000 -5.30950000e-03
-3.75976000 -4.84310000e-03
-3.72976000 -4.33122000e-03
-3.69976000 -3.76077000e-03
-3.66976000 -3.11382400e-03
-3.63976000 -2.36523000e-03
-3.60976000 -1.47877734e-03
-3.57976000 -4.00982000e-04
-3.54976000 9.49840000e-04
-3.51976000 2.70310000e-03
-3.48976000 5.07322000e-03
-3.45976000 8.43424000e-03
-3.42976000 1.34806500e-02
-3.37276000 3.39430720e-02
-3.34276000 5.92293210e-02
-3.31276000 1.09439581e-01
-3.28276000 1.85826638e-01
-3.25276000 1.89976912e-01
-3.22276000 1.14396856e-01
-3.19276000 6.25865690e-02
-3.16276000 3.66712030e-02
-3.13276000 2.32727760e-02
-3.10276000 1.57774250e-02
-3.07276000 1.12840510e-02
-3.04276000 8.44501830e-03
-3.01276000 6.58373470e-03
-2.98276000 5.33549000e-03
-2.95276000 4.49160100e-03
-2.92276000 3.92672700e-03
-2.89276000 3.56282500e-03
-2.86276000 3.35006500e-03
-2.83276000 3.25644700e-03
-2.80276000 3.26198000e-03
-2.77276000 3.35538000e-03
-2.74276000 3.53251600e-03
-2.71276000 3.79600800e-03
-2.68276000 4.15596400e-03
-2.65276000 4.63218400e-03
-2.62276000 5.25859000e-03
-2.59276000 6.09148600e-03
-2.53575000 8.63682000e-03
-2.50575000 1.09044700e-02
-2.47575000 1.44423800e-02
-2.44575000 2.03863800e-02
-2.41575000 3.12823000e-02
-2.38575000 5.28128400e-02
-2.35575000 9.17541200e-02
-2.32575000 1.16764240e-01
-2.29575000 8.24596200e-02
-2.26575000 4.74495000e-02
-2.23575000 2.92454600e-02
-2.20575000 2.00753200e-02
-2.17575000 1.51072800e-02
-2.14575000 1.22135300e-02
-2.11575000 1.04311000e-02
-2.08575000 9.28936000e-03
-2.05575000 8.54036000e-03
-2.02575000 8.04471000e-03
-1.99575000 7.71954000e-03
-1.96575000 7.51334000e-03
-1.93575000 7.39271000e-03
-1.90575000 7.33535000e-03
-1.87575000 7.32591000e-03
-1.84575000 7.35356000e-03
-1.81575000 7.41051000e-03
-1.78575000 7.49108000e-03
-1.75575000 7.59103000e-03
-1.69875000 7.82375000e-03
-1.66875000 7.96474000e-03
-1.63875000 8.11657000e-03
-1.60875000 8.27820000e-03
-1.57875000 8.44896000e-03
-1.54875000 8.62829000e-03
-1.51875000 8.81601000e-03
-1.48875000 9.01198000e-03
-1.45875000 9.21631000e-03
-1.42875000 9.42930000e-03
-1.39875000 9.65137000e-03
-1.36875000 9.88320000e-03
-1.33875000 1.01256400e-02
-1.30875000 1.03797700e-02
-1.27875000 1.06470500e-02
-1.24875000 1.09292000e-02
-1.21875000 1.12284400e-02
-1.18875000 1.15474400e-02
-1.15875000 1.18896800e-02
-1.12875000 1.22594200e-02
-1.09875000 1.26621100e-02
-1.06875000 1.31047400e-02
-1.03875000 1.35963600e-02
-1.00875000 1.41488000e-02
-0.97874600 1.47778300e-02
-0.94874600 1.55047300e-02
-0.91874600 1.63588400e-02
-0.86174100 1.84948700e-02
-0.83174100 2.00252000e-02
-0.80174100 2.19906400e-02
-0.77174100 2.45959200e-02
-0.74174100 2.81802500e-02
-0.71174100 3.33338700e-02
-0.68174100 4.11521600e-02
-0.65174100 5.38171100e-02
-0.62174100 7.60299100e-02
-0.59174100 1.18510570e-01
-0.56174100 2.02805260e-01
-0.53174100 3.24019200e-01
-0.50174100 3.14772770e-01
-0.47174100 1.93112780e-01
-0.44174100 1.14179820e-01
-0.41174100 7.47269100e-02
-0.38174100 5.41282400e-02
-0.35174100 4.24614300e-02
-0.32174100 3.53654800e-02
-0.29174100 3.08024100e-02
-0.26174100 2.77424400e-02
-0.23174100 2.56273900e-02
-0.20174100 2.41359500e-02
-0.17174100 2.30736800e-02
-0.14174100 2.23185200e-02
-0.11174100 2.17913300e-02
-0.08174050 2.14399500e-02
-0.02473530 2.11432300e-02
0.00526473 2.11485600e-02
0.03526470 2.12556900e-02
0.06526470 2.14667800e-02
0.09526470 2.17928400e-02
0.12526500 2.22568200e-02
0.15526500 2.28999500e-02
0.18526500 2.37950200e-02
0.21526500 2.50732300e-02
0.24526500 2.69588300e-02
0.27526500 2.96531600e-02
0.30526500 3.34026500e-02
0.33526500 3.98277900e-02
0.36526500 5.20641300e-02
0.39526500 7.63662100e-02
0.42526500 1.18000600e-01
0.45526500 1.34991310e-01
0.48526500 9.56400600e-02
0.51526500 6.25651800e-02
0.54526500 4.57877100e-02
0.57526500 3.73149100e-02
0.60526500 3.27324700e-02
0.63526500 3.01075100e-02
0.66526500 2.85593100e-02
0.69526500 2.76572400e-02
0.72526500 2.71775300e-02
0.75526500 2.70012700e-02
