# E(MeV)  S_GAMTGAMT(K=0) for Mt299_DDPCX
-3.69359000 3.79150000e-03
-3.66359000 3.81042000e-03
-3.63359000 3.82943000e-03
-3.60359000 3.84854000e-03
-3.57359000 3.86774000e-03
-3.54359000 3.88705000e-03
-3.51359000 3.90649000e-03
-3.48359000 3.92604000e-03
-3.45359000 3.94573000e-03
-3.42359000 3.96557000e-03
-3.39359000 3.98555000e-03
-3.36359000 4.00568000e-03
-3.33359000 4.02599000e-03
-3.30359000 4.04647000e-03
-3.27359000 4.06713000e-03
-3.24300000 4.08839000e-03
-3.21300000 4.10946000e-03
-3.18300000 4.13074000e-03
-3.15300000 4.15226000e-03
-3.12300000 4.17402000e-03
-3.09300000 4.19606000e-03
-3.06300000 4.21839000e-03
-3.03300000 4.24105000e-03
-3.00300000 4.26406000e-03
-2.97300000 4.28750000e-03
-2.94300000 4.31142000e-03
-2.91300000 4.33592000e-03
-2.88300000 4.36114000e-03
-2.85300000 4.38730000e-03
-2.82300000 4.41475000e-03
-2.79242000 4.44464000e-03
-2.76242000 4.47689000e-03
-2.73242000 4.51404000e-03
-2.70242000 4.56023000e-03
-2.67242000 4.62473000e-03
-2.64242000 4.72804000e-03
-2.61242000 4.89144000e-03
-2.58242000 4.99232000e-03
-2.55242000 4.89521000e-03
-2.52242000 4.80774000e-03
-2.49242000 4.77789000e-03
-2.46242000 4.77909000e-03
-2.43242000 4.79601000e-03
-2.40242000 4.82253000e-03
-2.37242000 4.85684000e-03
-2.34183000 4.90070000e-03
-2.31183000 4.95631000e-03
-2.28183000 5.03356000e-03
-2.25183000 5.15367000e-03
-2.22183000 5.36447000e-03
-2.19183000 5.72549000e-03
-2.16183000 5.98058000e-03
-2.13183000 5.72460000e-03
-2.10183000 5.45322000e-03
-2.07183000 5.32783000e-03
-2.04183000 5.28218000e-03
-2.01183000 5.27414000e-03
-1.98183000 5.28519000e-03
-1.95183000 5.30699000e-03
-1.92183000 5.33554000e-03
-1.89125000 5.36945000e-03
-1.86125000 5.40631000e-03
-1.83125000 5.44614000e-03
-1.80125000 5.48863000e-03
-1.77125000 5.53365000e-03
-1.74125000 5.58120000e-03
-1.71125000 5.63134000e-03
-1.68125000 5.68423000e-03
-1.65125000 5.74009000e-03
-1.62125000 5.79918000e-03
-1.59125000 5.86185000e-03
-1.56125000 5.92852000e-03
-1.53125000 5.99971000e-03
-1.50125000 6.07604000e-03
-1.47125000 6.15826000e-03
-1.44066000 6.24910000e-03
-1.41066000 6.34623000e-03
-1.38066000 6.45271000e-03
-1.35066000 6.57029000e-03
-1.32066000 6.70115000e-03
-1.29066000 6.84808000e-03
-1.26066000 7.01470000e-03
-1.23066000 7.20574000e-03
-1.20066000 7.42750000e-03
-1.17066000 7.68861000e-03
-1.14066000 8.00108000e-03
-1.11066000 8.38219000e-03
-1.08066000 8.85774000e-03
-1.05066000 9.46806000e-03
-1.02066000 1.02802000e-02
-0.99007300 1.14410000e-02
-0.96007300 1.31436000e-02
-0.93007300 1.58258000e-02
-0.90007300 1.95424000e-02
-0.87007300 2.29267000e-02
-0.84007300 2.80154000e-02
-0.81007300 3.88674000e-02
-0.78007300 6.12454000e-02
-0.75007300 1.02686000e-01
-0.72007300 1.38893000e-01
-0.69007300 1.12847000e-01
-0.66007300 6.99146000e-02
-0.63007300 4.57395000e-02
-0.60007300 3.43020000e-02
-0.57007300 2.83699000e-02
-0.53948800 2.22913000e-02
-0.50948800 1.80318000e-02
-0.47948800 1.56843000e-02
-0.44948800 1.45554000e-02
-0.41948800 1.43874000e-02
-0.38948800 1.53579000e-02
-0.35948800 1.82206000e-02
-0.32948800 2.35616000e-02
-0.29948800 2.59932000e-02
-0.26948800 2.21244000e-02
-0.23948800 1.77894000e-02
-0.20948800 1.53627000e-02
-0.17948800 1.51809000e-02
-0.14948800 1.62632000e-02
-0.11948800 1.55985000e-02
-0.08890170 1.40892000e-02
-0.05890170 1.34195000e-02
-0.02890170 1.36628000e-02
0.00109827 1.39115000e-02
0.03109830 1.32242000e-02
0.06109830 1.31858000e-02
0.09109830 1.44426000e-02
0.12109800 1.77007000e-02
0.15109800 2.38177000e-02
0.18109800 2.75456000e-02
0.21109800 2.29049000e-02
0.24109800 1.82272000e-02
0.27109800 1.48903000e-02
0.30109800 1.27994000e-02
0.33109800 1.17619000e-02
0.36168400 1.12259000e-02
0.39168400 1.08394000e-02
0.42168400 1.06174000e-02
0.45168400 1.05569000e-02
0.48168400 1.06303000e-02
0.51168400 1.08612000e-02
0.54168400 1.13402000e-02
0.57168400 1.20670000e-02
0.60168400 1.23626000e-02
0.63168400 1.21323000e-02
0.66168400 1.20506000e-02
0.69168400 1.23891000e-02
0.72168400 1.28723000e-02
0.75168400 1.32195000e-02
0.78168400 1.40774000e-02
