# E(MeV)  S_GAMTGAMT(K=1) for Mt299_DDPCX
-3.69359000 3.80601000e-03
-3.66359000 3.82596000e-03
-3.63359000 3.84592000e-03
-3.60359000 3.86590000e-03
-3.57359000 3.88593000e-03
-3.54359000 3.90602000e-03
-3.51359000 3.92620000e-03
-3.48359000 3.94647000e-03
-3.45359000 3.96686000e-03
-3.42359000 3.98737000e-03
-3.39359000 4.00803000e-03
-3.36359000 4.02885000e-03
-3.33359000 4.04985000e-03
-3.30359000 4.07105000e-03
-3.27359000 4.09248000e-03
-3.24300000 4.11459000e-03
-3.21300000 4.13656000e-03
-3.18300000 4.15888000e-03
-3.15300000 4.18160000e-03
-3.12300000 4.20480000e-03
-3.09300000 4.22862000e-03
-3.06300000 4.25324000e-03
-3.03300000 4.27894000e-03
-3.00300000 4.30621000e-03
-2.97300000 4.33586000e-03
-2.94300000 4.36944000e-03
-2.91300000 4.41002000e-03
-2.88300000 4.46427000e-03
-2.85300000 4.54741000e-03
-2.82300000 4.68769000e-03
-2.79242000 4.85870000e-03
-2.76242000 4.82992000e-03
-2.73242000 4.70827000e-03
-2.70242000 4.64880000e-03
-2.67242000 4.63438000e-03
-2.64242000 4.64269000e-03
-2.61242000 4.66459000e-03
-2.58242000 4.69507000e-03
-2.55242000 4.72336000e-03
-2.52242000 4.75225000e-03
-2.49242000 4.79052000e-03
-2.46242000 4.84083000e-03
-2.43242000 4.90864000e-03
-2.40242000 5.00711000e-03
-2.37242000 5.16654000e-03
-2.34183000 5.46349000e-03
-2.31183000 5.98704000e-03
-2.28183000 6.41905000e-03
-2.25183000 6.05742000e-03
-2.22183000 5.61771000e-03
-2.19183000 5.42800000e-03
-2.16183000 5.38545000e-03
-2.13183000 5.33661000e-03
-2.10183000 5.26548000e-03
-2.07183000 5.23241000e-03
-2.04183000 5.22800000e-03
-2.01183000 5.23877000e-03
-1.98183000 5.25804000e-03
-1.95183000 5.28258000e-03
-1.92183000 5.31075000e-03
-1.89125000 5.34228000e-03
-1.86125000 5.37541000e-03
-1.83125000 5.41045000e-03
-1.80125000 5.44723000e-03
-1.77125000 5.48565000e-03
-1.74125000 5.52572000e-03
-1.71125000 5.56746000e-03
-1.68125000 5.61094000e-03
-1.65125000 5.65627000e-03
-1.62125000 5.70360000e-03
-1.59125000 5.75310000e-03
-1.56125000 5.80502000e-03
-1.53125000 5.85962000e-03
-1.50125000 5.91725000e-03
-1.47125000 5.97834000e-03
-1.44066000 6.04471000e-03
-1.41066000 6.11447000e-03
-1.38066000 6.18963000e-03
-1.35066000 6.27121000e-03
-1.32066000 6.36046000e-03
-1.29066000 6.45902000e-03
-1.26066000 6.56902000e-03
-1.23066000 6.69329000e-03
-1.20066000 6.83567000e-03
-1.17066000 7.00145000e-03
-1.14066000 7.19820000e-03
-1.11066000 7.43705000e-03
-1.08066000 7.73510000e-03
-1.05066000 8.12006000e-03
-1.02066000 8.64005000e-03
-0.99007300 9.40250000e-03
-0.96007300 1.05421000e-02
-0.93007300 1.21656000e-02
-0.90007300 1.40711000e-02
-0.87007300 1.71309000e-02
-0.84007300 2.24071000e-02
-0.81007300 3.16260000e-02
-0.78007300 4.83598000e-02
-0.75007300 6.41524000e-02
-0.72007300 5.37029000e-02
-0.69007300 3.65709000e-02
-0.66007300 2.80250000e-02
-0.63007300 2.37015000e-02
-0.60007300 1.98479000e-02
-0.57007300 1.64053000e-02
-0.53948800 1.44500000e-02
-0.50948800 1.41043000e-02
-0.47948800 1.38523000e-02
-0.44948800 1.24323000e-02
-0.41948800 1.14810000e-02
-0.38948800 1.13418000e-02
-0.35948800 1.15448000e-02
-0.32948800 1.19174000e-02
-0.29948800 1.30332000e-02
-0.26948800 1.45990000e-02
-0.23948800 1.70323000e-02
-0.20948800 1.85529000e-02
-0.17948800 1.66921000e-02
-0.14948800 1.58857000e-02
-0.11948800 1.57322000e-02
-0.08890170 1.50857000e-02
-0.05890170 1.51119000e-02
-0.02890170 1.39667000e-02
0.00109827 1.23795000e-02
0.03109830 1.13350000e-02
0.06109830 1.09386000e-02
0.09109830 1.09866000e-02
0.12109800 1.14825000e-02
0.15109800 1.27249000e-02
0.18109800 1.51543000e-02
0.21109800 1.72533000e-02
0.24109800 1.60209000e-02
0.27109800 1.39954000e-02
0.30109800 1.27069000e-02
0.33109800 1.24137000e-02
0.36168400 1.29073000e-02
0.39168400 1.41487000e-02
0.42168400 1.50594000e-02
0.45168400 1.42877000e-02
0.48168400 1.39030000e-02
0.51168400 1.47454000e-02
0.54168400 1.58568000e-02
0.57168400 1.59905000e-02
0.60168400 1.47465000e-02
0.63168400 1.34134000e-02
0.66168400 1.27075000e-02
0.69168400 1.24681000e-02
0.72168400 1.25672000e-02
0.75168400 1.29949000e-02
0.78168400 1.37905000e-02
