# E(MeV)  S_NSDRNSDR(Total=K0+2*K1) for Mt299_DDPCX
-3.69359000 2.52139400e-01
-3.66359000 3.11670800e-01
-3.63359000 3.64212800e-01
-3.60359000 4.14488000e-01
-3.57359000 4.66101000e-01
-3.54359000 5.22479000e-01
-3.51359000 5.87637000e-01
-3.48359000 6.67083000e-01
-3.45359000 7.69263000e-01
-3.42359000 9.08275000e-01
-3.39359000 1.10951900e+00
-3.36359000 1.42245100e+00
-3.33359000 1.95158800e+00
-3.30359000 2.93258100e+00
-3.27359000 4.85837000e+00
-3.24300000 7.95963000e+00
-3.21300000 8.53533000e+00
-3.18300000 6.02963000e+00
-3.15300000 4.42557000e+00
-3.12300000 3.62118000e+00
-3.09300000 3.47181800e+00
-3.06300000 3.13720800e+00
-3.03300000 2.23460700e+00
-3.00300000 1.60944100e+00
-2.97300000 1.27530100e+00
-2.94300000 1.08962800e+00
-2.91300000 9.79041000e-01
-2.88300000 9.09695000e-01
-2.85300000 8.64925000e-01
-2.82300000 8.35821000e-01
-2.79242000 8.16985000e-01
-2.76242000 8.05982000e-01
-2.73242000 8.00378000e-01
-2.70242000 7.98855000e-01
-2.67242000 8.00512000e-01
-2.64242000 8.04711000e-01
-2.61242000 8.10996000e-01
-2.58242000 8.19033000e-01
-2.55242000 8.28578000e-01
-2.52242000 8.39445000e-01
-2.49242000 8.51503000e-01
-2.46242000 8.64648000e-01
-2.43242000 8.78813000e-01
-2.40242000 8.93946000e-01
-2.37242000 9.10013000e-01
-2.34183000 9.27341000e-01
-2.31183000 9.45256000e-01
-2.28183000 9.64092000e-01
-2.25183000 9.83862000e-01
-2.22183000 1.00459200e+00
-2.19183000 1.02631500e+00
-2.16183000 1.04907500e+00
-2.13183000 1.07292600e+00
-2.10183000 1.09792500e+00
-2.07183000 1.12414600e+00
-2.04183000 1.15166900e+00
-2.01183000 1.18059400e+00
-1.98183000 1.21102300e+00
-1.95183000 1.24308400e+00
-1.92183000 1.27691700e+00
-1.89125000 1.31340200e+00
-1.86125000 1.35133400e+00
-1.83125000 1.39160500e+00
-1.80125000 1.43446700e+00
-1.77125000 1.48020800e+00
-1.74125000 1.52917100e+00
-1.71125000 1.58175400e+00
-1.68125000 1.63843500e+00
-1.65125000 1.69978300e+00
-1.62125000 1.76648000e+00
-1.59125000 1.83936800e+00
-1.56125000 1.91947700e+00
-1.53125000 2.00809100e+00
-1.50125000 2.10683600e+00
-1.47125000 2.21780100e+00
-1.44066000 2.34634900e+00
-1.41066000 2.49127300e+00
-1.38066000 2.65989400e+00
-1.35066000 2.85927900e+00
-1.32066000 3.09969700e+00
-1.29066000 3.39665500e+00
-1.26066000 3.77403300e+00
-1.23066000 4.26947800e+00
-1.20066000 4.95369100e+00
-1.17066000 5.96315000e+00
-1.14066000 7.57719800e+00
-1.11066000 1.04102470e+01
-1.08066000 1.56153500e+01
-1.05066000 2.28743000e+01
-1.02066000 2.61723200e+01
-0.99007300 2.38547600e+01
-0.96007300 2.06736700e+01
-0.93007300 1.86620600e+01
-0.90007300 1.99666900e+01
-0.87007300 2.60025300e+01
-0.84007300 3.91012400e+01
-0.81007300 5.86202300e+01
-0.78007300 7.99227400e+01
-0.75007300 8.47325300e+01
-0.72007300 6.13239500e+01
-0.69007300 4.26987700e+01
-0.66007300 3.04662600e+01
-0.63007300 2.26385200e+01
-0.60007300 1.92282800e+01
-0.57007300 1.84311500e+01
-0.53948800 1.94941100e+01
-0.50948800 2.22187000e+01
-0.47948800 2.22280100e+01
-0.44948800 1.91541900e+01
-0.41948800 1.61080100e+01
-0.38948800 1.53869600e+01
-0.35948800 1.53005400e+01
-0.32948800 1.47678900e+01
-0.29948800 1.53370400e+01
-0.26948800 1.74448600e+01
-0.23948800 2.14635200e+01
-0.20948800 2.73480500e+01
-0.17948800 3.48304900e+01
-0.14948800 4.84115900e+01
-0.11948800 7.55444600e+01
-0.08890170 1.27499250e+02
-0.05890170 1.76465130e+02
-0.02890170 1.40694970e+02
0.00109827 8.84835700e+01
0.03109830 6.10624200e+01
0.06109830 4.89304000e+01
0.09109830 4.56312100e+01
0.12109800 4.66046000e+01
0.15109800 5.11209000e+01
0.18109800 5.67895000e+01
0.21109800 7.18292000e+01
0.24109800 8.48294800e+01
0.27109800 7.20648000e+01
0.30109800 5.42582000e+01
0.33109800 4.19503800e+01
0.36168400 3.49783600e+01
0.39168400 3.23317600e+01
0.42168400 3.23069000e+01
0.45168400 3.52085000e+01
0.48168400 4.14439000e+01
0.51168400 5.17838000e+01
0.54168400 6.70915000e+01
0.57168400 9.06815000e+01
0.60168400 1.23601200e+02
0.63168400 1.75637700e+02
0.66168400 2.12139400e+02
0.69168400 1.95524000e+02
0.72168400 2.00240700e+02
0.75168400 2.29133900e+02
0.78168400 2.72023000e+02
