# E(MeV)  S_GAMTGAMT(Total=K0+2*K1) for Mt299_DDPCX
-3.69359000 1.14035200e-02
-3.66359000 1.14623400e-02
-3.63359000 1.15212700e-02
-3.60359000 1.15803400e-02
-3.57359000 1.16396000e-02
-3.54359000 1.16990900e-02
-3.51359000 1.17588900e-02
-3.48359000 1.18189800e-02
-3.45359000 1.18794500e-02
-3.42359000 1.19403100e-02
-3.39359000 1.20016100e-02
-3.36359000 1.20633800e-02
-3.33359000 1.21256900e-02
-3.30359000 1.21885700e-02
-3.27359000 1.22520900e-02
-3.24300000 1.23175700e-02
-3.21300000 1.23825800e-02
-3.18300000 1.24485000e-02
-3.15300000 1.25154600e-02
-3.12300000 1.25836200e-02
-3.09300000 1.26533000e-02
-3.06300000 1.27248700e-02
-3.03300000 1.27989300e-02
-3.00300000 1.28764800e-02
-2.97300000 1.29592200e-02
-2.94300000 1.30503000e-02
-2.91300000 1.31559600e-02
-2.88300000 1.32896800e-02
-2.85300000 1.34821200e-02
-2.82300000 1.37901300e-02
-2.79242000 1.41620400e-02
-2.76242000 1.41367300e-02
-2.73242000 1.39305800e-02
-2.70242000 1.38578300e-02
-2.67242000 1.38934900e-02
-2.64242000 1.40134200e-02
-2.61242000 1.42206200e-02
-2.58242000 1.43824600e-02
-2.55242000 1.43419300e-02
-2.52242000 1.43122400e-02
-2.49242000 1.43589300e-02
-2.46242000 1.44607500e-02
-2.43242000 1.46132900e-02
-2.40242000 1.48367500e-02
-2.37242000 1.51899200e-02
-2.34183000 1.58276800e-02
-2.31183000 1.69303900e-02
-2.28183000 1.78716600e-02
-2.25183000 1.72685100e-02
-2.22183000 1.65998900e-02
-2.19183000 1.65814900e-02
-2.16183000 1.67514800e-02
-2.13183000 1.63978200e-02
-2.10183000 1.59841800e-02
-2.07183000 1.57926500e-02
-2.04183000 1.57381800e-02
-2.01183000 1.57516800e-02
-1.98183000 1.58012700e-02
-1.95183000 1.58721500e-02
-1.92183000 1.59570400e-02
-1.89125000 1.60540100e-02
-1.86125000 1.61571300e-02
-1.83125000 1.62670400e-02
-1.80125000 1.63830900e-02
-1.77125000 1.65049500e-02
-1.74125000 1.66326400e-02
-1.71125000 1.67662600e-02
-1.68125000 1.69061100e-02
-1.65125000 1.70526300e-02
-1.62125000 1.72063800e-02
-1.59125000 1.73680500e-02
-1.56125000 1.75385600e-02
-1.53125000 1.77189500e-02
-1.50125000 1.79105400e-02
-1.47125000 1.81149400e-02
-1.44066000 1.83385200e-02
-1.41066000 1.85751700e-02
-1.38066000 1.88319700e-02
-1.35066000 1.91127100e-02
-1.32066000 1.94220700e-02
-1.29066000 1.97661200e-02
-1.26066000 2.01527400e-02
-1.23066000 2.05923200e-02
-1.20066000 2.10988400e-02
-1.17066000 2.16915100e-02
-1.14066000 2.23974800e-02
-1.11066000 2.32562900e-02
-1.08066000 2.43279400e-02
-1.05066000 2.57081800e-02
-1.02066000 2.75603000e-02
-0.99007300 3.02460000e-02
-0.96007300 3.42278000e-02
-0.93007300 4.01570000e-02
-0.90007300 4.76846000e-02
-0.87007300 5.71885000e-02
-0.84007300 7.28296000e-02
-0.81007300 1.02119400e-01
-0.78007300 1.57965000e-01
-0.75007300 2.30990800e-01
-0.72007300 2.46298800e-01
-0.69007300 1.85988800e-01
-0.66007300 1.25964600e-01
-0.63007300 9.31425000e-02
-0.60007300 7.39978000e-02
-0.57007300 6.11805000e-02
-0.53948800 5.11913000e-02
-0.50948800 4.62404000e-02
-0.47948800 4.33889000e-02
-0.44948800 3.94200000e-02
-0.41948800 3.73494000e-02
-0.38948800 3.80415000e-02
-0.35948800 4.13102000e-02
-0.32948800 4.73964000e-02
-0.29948800 5.20596000e-02
-0.26948800 5.13224000e-02
-0.23948800 5.18540000e-02
-0.20948800 5.24685000e-02
-0.17948800 4.85651000e-02
-0.14948800 4.80346000e-02
-0.11948800 4.70629000e-02
-0.08890170 4.42606000e-02
-0.05890170 4.36433000e-02
-0.02890170 4.15962000e-02
0.00109827 3.86705000e-02
0.03109830 3.58942000e-02
0.06109830 3.50630000e-02
0.09109830 3.64158000e-02
0.12109800 4.06657000e-02
0.15109800 4.92675000e-02
0.18109800 5.78542000e-02
0.21109800 5.74115000e-02
0.24109800 5.02690000e-02
0.27109800 4.28811000e-02
0.30109800 3.82132000e-02
0.33109800 3.65893000e-02
0.36168400 3.70405000e-02
0.39168400 3.91368000e-02
0.42168400 4.07362000e-02
0.45168400 3.91323000e-02
0.48168400 3.84363000e-02
0.51168400 4.03520000e-02
0.54168400 4.30538000e-02
0.57168400 4.40480000e-02
0.60168400 4.18556000e-02
0.63168400 3.89591000e-02
0.66168400 3.74656000e-02
0.69168400 3.73253000e-02
0.72168400 3.80067000e-02
0.75168400 3.92093000e-02
0.78168400 4.16584000e-02
