# E(MeV)  S_NSDRNSDR(K=0) for Nb98_DDPCX
-5.17504000 -1.90404000e-01
-5.14504000 -1.83284000e-01
-5.11504000 -1.76669000e-01
-5.08504000 -1.70515000e-01
-5.05504000 -1.64779000e-01
-5.02504000 -1.59427000e-01
-4.99504000 -1.54427000e-01
-4.96504000 -1.49754000e-01
-4.93504000 -1.45383000e-01
-4.90504000 -1.41295000e-01
-4.87504000 -1.37473000e-01
-4.84504000 -1.33904000e-01
-4.81504000 -1.30576000e-01
-4.78504000 -1.27483000e-01
-4.75504000 -1.24620000e-01
-4.72504000 -1.21988000e-01
-4.69504000 -1.19594000e-01
-4.66504000 -1.17454000e-01
-4.63504000 -1.15600000e-01
-4.57631000 -1.13051000e-01
-4.54631000 -1.12583000e-01
-4.51631000 -1.13117000e-01
-4.48631000 -1.15470000e-01
-4.45631000 -1.21502000e-01
-4.42631000 -1.34840000e-01
-4.39631000 -1.53530000e-01
-4.36631000 -1.49144000e-01
-4.33631000 -1.28893000e-01
-4.30631000 -1.16405000e-01
-4.27631000 -1.10387000e-01
-4.24631000 -1.07623000e-01
-4.21631000 -1.06627000e-01
-4.18631000 -1.06782000e-01
-4.15631000 -1.07849000e-01
-4.12631000 -1.09767000e-01
-4.09631000 -1.12576000e-01
-4.06631000 -1.16395000e-01
-4.03631000 -1.21422000e-01
-3.97757000 -1.35969000e-01
-3.94757000 -1.46771000e-01
-3.91757000 -1.60882000e-01
-3.88757000 -1.79554000e-01
-3.85757000 -2.04708000e-01
-3.82757000 -2.39394000e-01
-3.79757000 -2.88676000e-01
-3.76757000 -3.61408000e-01
-3.73757000 -4.74061000e-01
-3.70757000 -6.59581000e-01
-3.67757000 -9.89223000e-01
-3.64757000 -1.62557000e+00
-3.61757000 -2.88865000e+00
-3.58757000 -4.63438000e+00
-3.55757000 -4.35323000e+00
-3.52757000 -2.57954000e+00
-3.49757000 -1.46236000e+00
-3.46757000 -9.02548000e-01
-3.43757000 -6.07252000e-01
-3.37884000 -3.36120000e-01
-3.34884000 -2.65734000e-01
-3.31884000 -2.17105000e-01
-3.28884000 -1.82110000e-01
-3.25884000 -1.56066000e-01
-3.22884000 -1.36127000e-01
-3.19884000 -1.20489000e-01
-3.16884000 -1.07967000e-01
-3.13884000 -9.77539000e-02
-3.10884000 -8.92890000e-02
-3.07884000 -8.21704000e-02
-3.04884000 -7.61049000e-02
-3.01884000 -7.08740000e-02
-2.98884000 -6.63125000e-02
-2.95884000 -6.22930000e-02
-2.92884000 -5.87160000e-02
-2.89884000 -5.55022000e-02
-2.86884000 -5.25877000e-02
-2.83884000 -4.99200000e-02
-2.78011000 -4.52493000e-02
-2.75011000 -4.30756000e-02
-2.72011000 -4.10035000e-02
-2.69011000 -3.90035000e-02
-2.66011000 -3.70455000e-02
-2.63011000 -3.50972000e-02
-2.60011000 -3.31217000e-02
-2.57011000 -3.10743000e-02
-2.54011000 -2.88974000e-02
-2.51011000 -2.65129000e-02
-2.48011000 -2.38102000e-02
-2.45011000 -2.06240000e-02
-2.42011000 -1.66969000e-02
-2.39011000 -1.16059000e-02
-2.36011000 -4.61751000e-03
-2.33011000 5.62535000e-03
-2.30011000 2.18247000e-02
-2.27011000 4.98027000e-02
-2.24011000 1.02832000e-01
-2.18138000 3.51817000e-01
-2.15138000 3.49411000e-01
-2.12138000 2.00300000e-01
-2.09138000 1.01355000e-01
-2.06138000 5.20117000e-02
-2.03138000 2.64641000e-02
-2.00138000 1.21557000e-02
-1.97138000 3.57287000e-03
-1.94138000 -1.85441000e-03
-1.91138000 -5.42129000e-03
-1.88138000 -7.82882000e-03
-1.85138000 -9.48016000e-03
-1.82138000 -1.06194000e-02
-1.79138000 -1.14005000e-02
-1.76138000 -1.19246000e-02
-1.73138000 -1.22596000e-02
-1.70138000 -1.24525000e-02
-1.67138000 -1.25365000e-02
-1.64138000 -1.25349000e-02
-1.58265000 -1.23416000e-02
-1.55265000 -1.21616000e-02
-1.52265000 -1.19277000e-02
-1.49265000 -1.16288000e-02
-1.46265000 -1.12322000e-02
-1.43265000 -1.06568000e-02
-1.40265000 -9.73087000e-03
-1.37265000 -8.45685000e-03
-1.34265000 -8.17130000e-03
-1.31265000 -8.89839000e-03
-1.28265000 -9.28937000e-03
-1.25265000 -9.33516000e-03
-1.22265000 -9.21230000e-03
-1.19265000 -9.00753000e-03
-1.16265000 -8.75913000e-03
-1.13265000 -8.48505000e-03
-1.10265000 -8.19437000e-03
-1.07265000 -7.89204000e-03
-1.04265000 -7.58087000e-03
-0.98392200 -6.95180000e-03
-0.95392200 -6.62179000e-03
-0.92392200 -6.28636000e-03
-0.89392200 -5.94555000e-03
-0.86392200 -5.59925000e-03
-0.83392200 -5.24722000e-03
-0.80392200 -4.88909000e-03
-0.77392200 -4.52438000e-03
-0.74392200 -4.15251000e-03
-0.71392200 -3.77278000e-03
-0.68392200 -3.38436000e-03
-0.65392200 -2.98630000e-03
-0.62392200 -2.57748000e-03
-0.59392200 -2.15662000e-03
-0.56392200 -1.72223000e-03
-0.53392200 -1.27260000e-03
-0.50392200 -8.05718000e-04
-0.47392200 -3.19266000e-04
-0.44392200 1.89490000e-04
-0.38519100 1.26286000e-03
-0.35519100 1.85879000e-03
-0.32519100 2.49379000e-03
-0.29519100 3.17442000e-03
-0.26519100 3.90868000e-03
-0.23519100 4.70645000e-03
-0.20519100 5.58007000e-03
-0.17519100 6.54508000e-03
-0.14519100 7.62139000e-03
-0.11519100 8.83480000e-03
-0.08519110 1.02194000e-02
-0.05519110 1.18209000e-02
-0.02519110 1.37022000e-02
0.00480885 1.59515000e-02
0.03480890 1.86962000e-02
0.06480890 2.21261000e-02
0.09480890 2.65344000e-02
0.12480900 3.23942000e-02
0.15480900 4.05093000e-02
0.21353900 6.97041000e-02
0.24353900 9.97653000e-02
0.27353900 1.54642000e-01
0.30353900 2.59719000e-01
0.33353900 4.15635000e-01
0.36353900 4.81886000e-01
0.39353900 4.85604000e-01
0.42353900 3.96628000e-01
0.45353900 2.47416000e-01
0.48353900 1.59647000e-01
0.51353900 1.17531000e-01
0.54353900 9.84294000e-02
0.57353900 9.22009000e-02
0.60353900 9.52527000e-02
0.63353900 1.07691000e-01
0.66353900 1.33302000e-01
0.69353900 1.81896000e-01
0.72353900 2.67913000e-01
0.75353900 3.60794000e-01
