# E(MeV)  S_GAMTGAMT(K=0) for Ni69_DDPCX
-4.18176000 2.30321000e-03
-4.15176000 2.32230000e-03
-4.12176000 2.34167000e-03
-4.09176000 2.36131000e-03
-4.06176000 2.38124000e-03
-4.03176000 2.40145000e-03
-4.00176000 2.42195000e-03
-3.97176000 2.44275000e-03
-3.94176000 2.46386000e-03
-3.91176000 2.48528000e-03
-3.88176000 2.50701000e-03
-3.85176000 2.52908000e-03
-3.82176000 2.55147000e-03
-3.79176000 2.57421000e-03
-3.76176000 2.59730000e-03
-3.73176000 2.62074000e-03
-3.68236000 2.66014000e-03
-3.65236000 2.68457000e-03
-3.62236000 2.70938000e-03
-3.59236000 2.73459000e-03
-3.56236000 2.76021000e-03
-3.53236000 2.78624000e-03
-3.50236000 2.81270000e-03
-3.47236000 2.83959000e-03
-3.44236000 2.86693000e-03
-3.41236000 2.89473000e-03
-3.38236000 2.92300000e-03
-3.35236000 2.95175000e-03
-3.32236000 2.98099000e-03
-3.29236000 3.01074000e-03
-3.26236000 3.04101000e-03
-3.23236000 3.07182000e-03
-3.18296000 3.12374000e-03
-3.15296000 3.15603000e-03
-3.12296000 3.18890000e-03
-3.09296000 3.22238000e-03
-3.06296000 3.25647000e-03
-3.03296000 3.29121000e-03
-3.00296000 3.32660000e-03
-2.97296000 3.36266000e-03
-2.94296000 3.39942000e-03
-2.91296000 3.43689000e-03
-2.88296000 3.47510000e-03
-2.85296000 3.51406000e-03
-2.82296000 3.55380000e-03
-2.79296000 3.59435000e-03
-2.76296000 3.63572000e-03
-2.73296000 3.67795000e-03
-2.68355000 3.74942000e-03
-2.65355000 3.79404000e-03
-2.62355000 3.83962000e-03
-2.59355000 3.88618000e-03
-2.56355000 3.93377000e-03
-2.53355000 3.98241000e-03
-2.50355000 4.03214000e-03
-2.47355000 4.08300000e-03
-2.44355000 4.13503000e-03
-2.41355000 4.18827000e-03
-2.38355000 4.24276000e-03
-2.35355000 4.29854000e-03
-2.32355000 4.35567000e-03
-2.29355000 4.41420000e-03
-2.26355000 4.47417000e-03
-2.23355000 4.53564000e-03
-2.18415000 4.64030000e-03
-2.15415000 4.70603000e-03
-2.12415000 4.77349000e-03
-2.09415000 4.84275000e-03
-2.06415000 4.91388000e-03
-2.03415000 4.98696000e-03
-2.00415000 5.06207000e-03
-1.97415000 5.13930000e-03
-1.94415000 5.21875000e-03
-1.91415000 5.30050000e-03
-1.88415000 5.38467000e-03
-1.85415000 5.47136000e-03
-1.82415000 5.56069000e-03
-1.79415000 5.65279000e-03
-1.76415000 5.74779000e-03
-1.73415000 5.84583000e-03
-1.68475000 6.01431000e-03
-1.65475000 6.12116000e-03
-1.62475000 6.23164000e-03
-1.59475000 6.34597000e-03
-1.56475000 6.46434000e-03
-1.53475000 6.58697000e-03
-1.50475000 6.71411000e-03
-1.47475000 6.84601000e-03
-1.44475000 6.98294000e-03
-1.41475000 7.12522000e-03
-1.38475000 7.27315000e-03
-1.35475000 7.42709000e-03
-1.32475000 7.58742000e-03
-1.29475000 7.75456000e-03
-1.26475000 7.92894000e-03
-1.23475000 8.11105000e-03
-1.18534000 8.42925000e-03
-1.15534000 8.63454000e-03
-1.12534000 8.84976000e-03
-1.09534000 9.07566000e-03
-1.06534000 9.31305000e-03
-1.03534000 9.56284000e-03
-1.00534000 9.82603000e-03
-0.97534400 1.01037000e-02
-0.94534400 1.03971000e-02
-0.91534400 1.07077000e-02
-0.88534400 1.10369000e-02
-0.85534400 1.13864000e-02
-0.82534400 1.17583000e-02
-0.79534400 1.21546000e-02
-0.76534400 1.25779000e-02
-0.73534400 1.30309000e-02
-0.68594000 1.38504000e-02
-0.65594000 1.43988000e-02
-0.62594000 1.49911000e-02
-0.59594000 1.56324000e-02
-0.56594000 1.63292000e-02
-0.53594000 1.70884000e-02
-0.50594000 1.79187000e-02
-0.47594000 1.88300000e-02
-0.44594000 1.98343000e-02
-0.41594000 2.09459000e-02
-0.38594000 2.21818000e-02
-0.35594000 2.35629000e-02
-0.32594000 2.51149000e-02
-0.29594000 2.68692000e-02
-0.26594000 2.88652000e-02
-0.23594000 3.11526000e-02
-0.18653700 3.57300000e-02
-0.15653700 3.91462000e-02
-0.12653700 4.31938000e-02
-0.09653680 4.80463000e-02
-0.06653680 5.39419000e-02
-0.03653680 6.12149000e-02
-0.00653681 7.03454000e-02
0.02346320 8.20433000e-02
0.05346320 9.73925000e-02
0.08346320 1.18112000e-01
0.11346300 1.47053000e-01
0.14346300 1.89199000e-01
0.17346300 2.53826000e-01
0.20346300 3.59504000e-01
0.23346300 5.46449000e-01
0.26346300 9.06411000e-01
0.31286700 2.27708000e+00
0.34286700 2.65093000e+00
0.37286700 1.73676000e+00
0.40286700 9.78218000e-01
0.43286700 5.93515000e-01
0.46286700 3.99117000e-01
0.49286700 2.94725000e-01
0.52286700 2.36993000e-01
0.55286700 2.07145000e-01
0.58286700 1.97812000e-01
0.61286700 2.08803000e-01
0.64286700 2.47935000e-01
0.67286700 3.37896000e-01
0.70286700 5.30603000e-01
0.73286700 8.62574000e-01
0.76286700 9.73180000e-01
