# E(MeV)  S_NSDRNSDR(K=0) for Ni69_DDPCX
-4.18176000 -7.47632000e-04
-4.15176000 -6.68948000e-04
-4.12176000 -5.90622000e-04
-4.09176000 -5.12648000e-04
-4.06176000 -4.35018000e-04
-4.03176000 -3.57729000e-04
-4.00176000 -2.80774000e-04
-3.97176000 -2.04146000e-04
-3.94176000 -1.27842000e-04
-3.91176000 -5.18542000e-05
-3.88176000 2.38219000e-05
-3.85176000 9.91917000e-05
-3.82176000 1.74261000e-04
-3.79176000 2.49034000e-04
-3.76176000 3.23518000e-04
-3.73176000 3.97716000e-04
-3.68236000 5.19296000e-04
-3.65236000 5.92765000e-04
-3.62236000 6.65966000e-04
-3.59236000 7.38905000e-04
-3.56236000 8.11588000e-04
-3.53236000 8.84018000e-04
-3.50236000 9.56200000e-04
-3.47236000 1.02814000e-03
-3.44236000 1.09984000e-03
-3.41236000 1.17131000e-03
-3.38236000 1.24255000e-03
-3.35236000 1.31356000e-03
-3.32236000 1.38436000e-03
-3.29236000 1.45493000e-03
-3.26236000 1.52530000e-03
-3.23236000 1.59546000e-03
-3.18296000 1.71055000e-03
-3.15296000 1.78018000e-03
-3.12296000 1.84962000e-03
-3.09296000 1.91887000e-03
-3.06296000 1.98794000e-03
-3.03296000 2.05683000e-03
-3.00296000 2.12554000e-03
-2.97296000 2.19407000e-03
-2.94296000 2.26245000e-03
-2.91296000 2.33065000e-03
-2.88296000 2.39870000e-03
-2.85296000 2.46659000e-03
-2.82296000 2.53432000e-03
-2.79296000 2.60191000e-03
-2.76296000 2.66935000e-03
-2.73296000 2.73665000e-03
-2.68355000 2.84718000e-03
-2.65355000 2.91412000e-03
-2.62355000 2.98094000e-03
-2.59355000 3.04763000e-03
-2.56355000 3.11419000e-03
-2.53355000 3.18064000e-03
-2.50355000 3.24697000e-03
-2.47355000 3.31320000e-03
-2.44355000 3.37931000e-03
-2.41355000 3.44532000e-03
-2.38355000 3.51123000e-03
-2.35355000 3.57704000e-03
-2.32355000 3.64275000e-03
-2.29355000 3.70838000e-03
-2.26355000 3.77391000e-03
-2.23355000 3.83936000e-03
-2.18415000 3.94697000e-03
-2.15415000 4.01221000e-03
-2.12415000 4.07738000e-03
-2.09415000 4.14247000e-03
-2.06415000 4.20750000e-03
-2.03415000 4.27247000e-03
-2.00415000 4.33737000e-03
-1.97415000 4.40222000e-03
-1.94415000 4.46701000e-03
-1.91415000 4.53175000e-03
-1.88415000 4.59644000e-03
-1.85415000 4.66109000e-03
-1.82415000 4.72569000e-03
-1.79415000 4.79025000e-03
-1.76415000 4.85478000e-03
-1.73415000 4.91927000e-03
-1.68475000 5.02541000e-03
-1.65475000 5.08982000e-03
-1.62475000 5.15421000e-03
-1.59475000 5.21858000e-03
-1.56475000 5.28293000e-03
-1.53475000 5.34727000e-03
-1.50475000 5.41160000e-03
-1.47475000 5.47591000e-03
-1.44475000 5.54022000e-03
-1.41475000 5.60453000e-03
-1.38475000 5.66883000e-03
-1.35475000 5.73314000e-03
-1.32475000 5.79745000e-03
-1.29475000 5.86177000e-03
-1.26475000 5.92609000e-03
-1.23475000 5.99044000e-03
-1.18534000 6.09643000e-03
-1.15534000 6.16082000e-03
-1.12534000 6.22523000e-03
-1.09534000 6.28966000e-03
-1.06534000 6.35413000e-03
-1.03534000 6.41863000e-03
-1.00534000 6.48316000e-03
-0.97534400 6.54772000e-03
-0.94534400 6.61233000e-03
-0.91534400 6.67698000e-03
-0.88534400 6.74167000e-03
-0.85534400 6.80641000e-03
-0.82534400 6.87120000e-03
-0.79534400 6.93604000e-03
-0.76534400 7.00094000e-03
-0.73534400 7.06589000e-03
-0.68594000 7.17299000e-03
-0.65594000 7.23811000e-03
-0.62594000 7.30330000e-03
-0.59594000 7.36856000e-03
-0.56594000 7.43390000e-03
-0.53594000 7.49930000e-03
-0.50594000 7.56479000e-03
-0.47594000 7.63036000e-03
-0.44594000 7.69601000e-03
-0.41594000 7.76175000e-03
-0.38594000 7.82758000e-03
-0.35594000 7.89349000e-03
-0.32594000 7.95951000e-03
-0.29594000 8.02562000e-03
-0.26594000 8.09183000e-03
-0.23594000 8.15814000e-03
-0.18653700 8.26758000e-03
-0.15653700 8.33418000e-03
-0.12653700 8.40089000e-03
-0.09653680 8.46771000e-03
-0.06653680 8.53466000e-03
-0.03653680 8.60172000e-03
-0.00653681 8.66891000e-03
0.02346320 8.73622000e-03
0.05346320 8.80366000e-03
0.08346320 8.87124000e-03
0.11346300 8.93895000e-03
0.14346300 9.00679000e-03
0.17346300 9.07478000e-03
0.20346300 9.14291000e-03
0.23346300 9.21118000e-03
0.26346300 9.27960000e-03
0.31286700 9.39261000e-03
0.34286700 9.46144000e-03
0.37286700 9.53043000e-03
0.40286700 9.59958000e-03
0.43286700 9.66889000e-03
0.46286700 9.73837000e-03
0.49286700 9.80802000e-03
0.52286700 9.87784000e-03
0.55286700 9.94784000e-03
0.58286700 1.00180000e-02
0.61286700 1.00884000e-02
0.64286700 1.01589000e-02
0.67286700 1.02297000e-02
0.70286700 1.03006000e-02
0.73286700 1.03717000e-02
0.76286700 1.04430000e-02
