# E(MeV)  S_NSDRNSDR(Total=K0+2*K1) for Ni69_DDPCX
-4.18176000 -4.92300000e-04
-4.15176000 -2.70130000e-04
-4.12176000 -4.89180000e-05
-4.09176000 1.71350000e-04
-4.06176000 3.90694000e-04
-4.03176000 6.09125000e-04
-4.00176000 8.26662000e-04
-3.97176000 1.04332200e-03
-3.94176000 1.25912000e-03
-3.91176000 1.47406980e-03
-3.88176000 1.68818990e-03
-3.85176000 1.90149370e-03
-3.82176000 2.11399500e-03
-3.79176000 2.32571400e-03
-3.76176000 2.53665800e-03
-3.73176000 2.74683600e-03
-3.68236000 3.09135600e-03
-3.65236000 3.29960500e-03
-3.62236000 3.50714600e-03
-3.59236000 3.71400500e-03
-3.56236000 3.92016800e-03
-3.53236000 4.12567800e-03
-3.50236000 4.33052000e-03
-3.47236000 4.53474000e-03
-3.44236000 4.73832000e-03
-3.41236000 4.94129000e-03
-3.38236000 5.14367000e-03
-3.35236000 5.34546000e-03
-3.32236000 5.54666000e-03
-3.29236000 5.74731000e-03
-3.26236000 5.94740000e-03
-3.23236000 6.14694000e-03
-3.18296000 6.47441000e-03
-3.15296000 6.67260000e-03
-3.12296000 6.87028000e-03
-3.09296000 7.06747000e-03
-3.06296000 7.26420000e-03
-3.03296000 7.46047000e-03
-3.00296000 7.65626000e-03
-2.97296000 7.85163000e-03
-2.94296000 8.04657000e-03
-2.91296000 8.24109000e-03
-2.88296000 8.43520000e-03
-2.85296000 8.62891000e-03
-2.82296000 8.82222000e-03
-2.79296000 9.01517000e-03
-2.76296000 9.20775000e-03
-2.73296000 9.39999000e-03
-2.68355000 9.71578000e-03
-2.65355000 9.90712000e-03
-2.62355000 1.00981400e-02
-2.59355000 1.02888500e-02
-2.56355000 1.04792500e-02
-2.53355000 1.06693600e-02
-2.50355000 1.08591900e-02
-2.47355000 1.10487600e-02
-2.44355000 1.12380700e-02
-2.41355000 1.14271200e-02
-2.38355000 1.16159300e-02
-2.35355000 1.18045000e-02
-2.32355000 1.19928500e-02
-2.29355000 1.21810000e-02
-2.26355000 1.23689300e-02
-2.23355000 1.25566600e-02
-2.18415000 1.28654300e-02
-2.15415000 1.30526900e-02
-2.12415000 1.32398000e-02
-2.09415000 1.34267300e-02
-2.06415000 1.36135400e-02
-2.03415000 1.38002100e-02
-2.00415000 1.39867500e-02
-1.97415000 1.41731600e-02
-1.94415000 1.43594700e-02
-1.91415000 1.45456700e-02
-1.88415000 1.47317800e-02
-1.85415000 1.49178100e-02
-1.82415000 1.51037700e-02
-1.79415000 1.52896500e-02
-1.76415000 1.54754600e-02
-1.73415000 1.56612300e-02
-1.68475000 1.59670700e-02
-1.65475000 1.61527400e-02
-1.62475000 1.63383900e-02
-1.59475000 1.65240400e-02
-1.56475000 1.67096700e-02
-1.53475000 1.68953100e-02
-1.50475000 1.70809600e-02
-1.47475000 1.72666300e-02
-1.44475000 1.74523200e-02
-1.41475000 1.76380500e-02
-1.38475000 1.78238300e-02
-1.35475000 1.80096600e-02
-1.32475000 1.81955300e-02
-1.29475000 1.83814900e-02
-1.26475000 1.85675100e-02
-1.23475000 1.87536400e-02
-1.18534000 1.90603100e-02
-1.15534000 1.92466800e-02
-1.12534000 1.94331700e-02
-1.09534000 1.96197600e-02
-1.06534000 1.98064900e-02
-1.03534000 1.99933500e-02
-1.00534000 2.01803600e-02
-0.97534400 2.03675200e-02
-0.94534400 2.05548300e-02
-0.91534400 2.07423200e-02
-0.88534400 2.09299700e-02
-0.85534400 2.11178100e-02
-0.82534400 2.13058600e-02
-0.79534400 2.14940800e-02
-0.76534400 2.16825200e-02
-0.73534400 2.18711500e-02
-0.68594000 2.21822900e-02
-0.65594000 2.23715500e-02
-0.62594000 2.25610400e-02
-0.59594000 2.27507800e-02
-0.56594000 2.29407800e-02
-0.53594000 2.31310400e-02
-0.50594000 2.33215700e-02
-0.47594000 2.35123800e-02
-0.44594000 2.37034900e-02
-0.41594000 2.38948900e-02
-0.38594000 2.40866000e-02
-0.35594000 2.42786100e-02
-0.32594000 2.44709500e-02
-0.29594000 2.46636000e-02
-0.26594000 2.48566100e-02
-0.23594000 2.50499400e-02
-0.18653700 2.53691200e-02
-0.15653700 2.55634000e-02
-0.12653700 2.57580700e-02
-0.09653680 2.59531100e-02
-0.06653680 2.61485400e-02
-0.03653680 2.63443600e-02
-0.00653681 2.65405900e-02
0.02346320 2.67372400e-02
0.05346320 2.69343000e-02
0.08346320 2.71318000e-02
0.11346300 2.73297300e-02
0.14346300 2.75281100e-02
0.17346300 2.77269400e-02
0.20346300 2.79262300e-02
0.23346300 2.81259800e-02
0.26346300 2.83262200e-02
0.31286700 2.86570300e-02
0.34286700 2.88585800e-02
0.37286700 2.90606300e-02
0.40286700 2.92632200e-02
0.43286700 2.94663100e-02
0.46286700 2.96699300e-02
0.49286700 2.98740200e-02
0.52286700 3.00788400e-02
0.55286700 3.02840400e-02
0.58286700 3.04900000e-02
0.61286700 3.06964000e-02
0.64286700 3.09033000e-02
0.67286700 3.11111000e-02
0.70286700 3.13192000e-02
0.73286700 3.15281000e-02
0.76286700 3.17376000e-02
