# E(MeV)  S_NSDRNSDR(K=1) for Ni69_DDPCX
-4.18176000 1.27666000e-04
-4.15176000 1.99409000e-04
-4.12176000 2.70852000e-04
-4.09176000 3.41999000e-04
-4.06176000 4.12856000e-04
-4.03176000 4.83427000e-04
-4.00176000 5.53718000e-04
-3.97176000 6.23734000e-04
-3.94176000 6.93481000e-04
-3.91176000 7.62962000e-04
-3.88176000 8.32184000e-04
-3.85176000 9.01151000e-04
-3.82176000 9.69867000e-04
-3.79176000 1.03834000e-03
-3.76176000 1.10657000e-03
-3.73176000 1.17456000e-03
-3.68236000 1.28603000e-03
-3.65236000 1.35342000e-03
-3.62236000 1.42059000e-03
-3.59236000 1.48755000e-03
-3.56236000 1.55429000e-03
-3.53236000 1.62083000e-03
-3.50236000 1.68716000e-03
-3.47236000 1.75330000e-03
-3.44236000 1.81924000e-03
-3.41236000 1.88499000e-03
-3.38236000 1.95056000e-03
-3.35236000 2.01595000e-03
-3.32236000 2.08115000e-03
-3.29236000 2.14619000e-03
-3.26236000 2.21105000e-03
-3.23236000 2.27574000e-03
-3.18296000 2.38193000e-03
-3.15296000 2.44621000e-03
-3.12296000 2.51033000e-03
-3.09296000 2.57430000e-03
-3.06296000 2.63813000e-03
-3.03296000 2.70182000e-03
-3.00296000 2.76536000e-03
-2.97296000 2.82878000e-03
-2.94296000 2.89206000e-03
-2.91296000 2.95522000e-03
-2.88296000 3.01825000e-03
-2.85296000 3.08116000e-03
-2.82296000 3.14395000e-03
-2.79296000 3.20663000e-03
-2.76296000 3.26920000e-03
-2.73296000 3.33167000e-03
-2.68355000 3.43430000e-03
-2.65355000 3.49650000e-03
-2.62355000 3.55860000e-03
-2.59355000 3.62061000e-03
-2.56355000 3.68253000e-03
-2.53355000 3.74436000e-03
-2.50355000 3.80611000e-03
-2.47355000 3.86778000e-03
-2.44355000 3.92938000e-03
-2.41355000 3.99090000e-03
-2.38355000 4.05235000e-03
-2.35355000 4.11373000e-03
-2.32355000 4.17505000e-03
-2.29355000 4.23631000e-03
-2.26355000 4.29751000e-03
-2.23355000 4.35865000e-03
-2.18415000 4.45923000e-03
-2.15415000 4.52024000e-03
-2.12415000 4.58121000e-03
-2.09415000 4.64213000e-03
-2.06415000 4.70302000e-03
-2.03415000 4.76387000e-03
-2.00415000 4.82469000e-03
-1.97415000 4.88547000e-03
-1.94415000 4.94623000e-03
-1.91415000 5.00696000e-03
-1.88415000 5.06767000e-03
-1.85415000 5.12836000e-03
-1.82415000 5.18904000e-03
-1.79415000 5.24970000e-03
-1.76415000 5.31034000e-03
-1.73415000 5.37098000e-03
-1.68475000 5.47083000e-03
-1.65475000 5.53146000e-03
-1.62475000 5.59209000e-03
-1.59475000 5.65273000e-03
-1.56475000 5.71337000e-03
-1.53475000 5.77402000e-03
-1.50475000 5.83468000e-03
-1.47475000 5.89536000e-03
-1.44475000 5.95605000e-03
-1.41475000 6.01676000e-03
-1.38475000 6.07750000e-03
-1.35475000 6.13826000e-03
-1.32475000 6.19904000e-03
-1.29475000 6.25986000e-03
-1.26475000 6.32071000e-03
-1.23475000 6.38160000e-03
-1.18534000 6.48194000e-03
-1.15534000 6.54293000e-03
-1.12534000 6.60397000e-03
-1.09534000 6.66505000e-03
-1.06534000 6.72618000e-03
-1.03534000 6.78736000e-03
-1.00534000 6.84860000e-03
-0.97534400 6.90990000e-03
-0.94534400 6.97125000e-03
-0.91534400 7.03267000e-03
-0.88534400 7.09415000e-03
-0.85534400 7.15570000e-03
-0.82534400 7.21733000e-03
-0.79534400 7.27902000e-03
-0.76534400 7.34079000e-03
-0.73534400 7.40263000e-03
-0.68594000 7.50465000e-03
-0.65594000 7.56672000e-03
-0.62594000 7.62887000e-03
-0.59594000 7.69111000e-03
-0.56594000 7.75344000e-03
-0.53594000 7.81587000e-03
-0.50594000 7.87839000e-03
-0.47594000 7.94101000e-03
-0.44594000 8.00374000e-03
-0.41594000 8.06657000e-03
-0.38594000 8.12951000e-03
-0.35594000 8.19256000e-03
-0.32594000 8.25572000e-03
-0.29594000 8.31899000e-03
-0.26594000 8.38239000e-03
-0.23594000 8.44590000e-03
-0.18653700 8.55077000e-03
-0.15653700 8.61461000e-03
-0.12653700 8.67859000e-03
-0.09653680 8.74270000e-03
-0.06653680 8.80694000e-03
-0.03653680 8.87132000e-03
-0.00653681 8.93584000e-03
0.02346320 9.00051000e-03
0.05346320 9.06532000e-03
0.08346320 9.13028000e-03
0.11346300 9.19539000e-03
0.14346300 9.26066000e-03
0.17346300 9.32608000e-03
0.20346300 9.39166000e-03
0.23346300 9.45740000e-03
0.26346300 9.52331000e-03
0.31286700 9.63221000e-03
0.34286700 9.69857000e-03
0.37286700 9.76510000e-03
0.40286700 9.83182000e-03
0.43286700 9.89871000e-03
0.46286700 9.96578000e-03
0.49286700 1.00330000e-02
0.52286700 1.01005000e-02
0.55286700 1.01681000e-02
0.58286700 1.02360000e-02
0.61286700 1.03040000e-02
0.64286700 1.03722000e-02
0.67286700 1.04407000e-02
0.70286700 1.05093000e-02
0.73286700 1.05782000e-02
0.76286700 1.06473000e-02
