# E(MeV)  S_GAMTGAMT(K=1) for Ni73_DDPCX
-7.56192000 1.91743000e-03
-7.53192000 1.92952000e-03
-7.50192000 1.94175000e-03
-7.47192000 1.95410000e-03
-7.44192000 1.96657000e-03
-7.41192000 1.97918000e-03
-7.38192000 1.99193000e-03
-7.35192000 2.00481000e-03
-7.32192000 2.01782000e-03
-7.29192000 2.03097000e-03
-7.26192000 2.04427000e-03
-7.23192000 2.05771000e-03
-7.20192000 2.07129000e-03
-7.17192000 2.08503000e-03
-7.14192000 2.09891000e-03
-7.11192000 2.11295000e-03
-7.08192000 2.12714000e-03
-7.05192000 2.14148000e-03
-7.02192000 2.15599000e-03
-6.99192000 2.17066000e-03
-6.96192000 2.18550000e-03
-6.93192000 2.20050000e-03
-6.90192000 2.21568000e-03
-6.87192000 2.23103000e-03
-6.84192000 2.24655000e-03
-6.81192000 2.26225000e-03
-6.78192000 2.27814000e-03
-6.72450000 2.30906000e-03
-6.69450000 2.32550000e-03
-6.66450000 2.34212000e-03
-6.63450000 2.35895000e-03
-6.60450000 2.37598000e-03
-6.57450000 2.39321000e-03
-6.54450000 2.41065000e-03
-6.51450000 2.42830000e-03
-6.48450000 2.44617000e-03
-6.45450000 2.46425000e-03
-6.42450000 2.48256000e-03
-6.39450000 2.50110000e-03
-6.36450000 2.51987000e-03
-6.33450000 2.53887000e-03
-6.30450000 2.55812000e-03
-6.27450000 2.57760000e-03
-6.24450000 2.59734000e-03
-6.21450000 2.61733000e-03
-6.18450000 2.63757000e-03
-6.15450000 2.65808000e-03
-6.12450000 2.67886000e-03
-6.09450000 2.69991000e-03
-6.06450000 2.72123000e-03
-6.03450000 2.74284000e-03
-6.00450000 2.76474000e-03
-5.97450000 2.78693000e-03
-5.94450000 2.80943000e-03
-5.88708000 2.85333000e-03
-5.85708000 2.87673000e-03
-5.82708000 2.90046000e-03
-5.79708000 2.92451000e-03
-5.76708000 2.94890000e-03
-5.73708000 2.97363000e-03
-5.70708000 2.99872000e-03
-5.67708000 3.02416000e-03
-5.64708000 3.04997000e-03
-5.61708000 3.07615000e-03
-5.58708000 3.10272000e-03
-5.55708000 3.12967000e-03
-5.52708000 3.15702000e-03
-5.49708000 3.18477000e-03
-5.46708000 3.21294000e-03
-5.43708000 3.24154000e-03
-5.40708000 3.27056000e-03
-5.37708000 3.30003000e-03
-5.34708000 3.32995000e-03
-5.31708000 3.36034000e-03
-5.28708000 3.39120000e-03
-5.25708000 3.42254000e-03
-5.22708000 3.45437000e-03
-5.19708000 3.48672000e-03
-5.16708000 3.51958000e-03
-5.13708000 3.55297000e-03
-5.10708000 3.58691000e-03
-5.04966000 3.65342000e-03
-5.01966000 3.68901000e-03
-4.98966000 3.72520000e-03
-4.95966000 3.76200000e-03
-4.92966000 3.79942000e-03
-4.89966000 3.83749000e-03
-4.86966000 3.87621000e-03
-4.83966000 3.91561000e-03
-4.80966000 3.95571000e-03
-4.77966000 3.99651000e-03
-4.74966000 4.03804000e-03
-4.71966000 4.08031000e-03
-4.68966000 4.12336000e-03
-4.65966000 4.16719000e-03
-4.62966000 4.21184000e-03
-4.59966000 4.25731000e-03
-4.56966000 4.30364000e-03
-4.53966000 4.35084000e-03
-4.50966000 4.39895000e-03
-4.47966000 4.44799000e-03
-4.44966000 4.49799000e-03
-4.41966000 4.54896000e-03
-4.38966000 4.60095000e-03
-4.35966000 4.65398000e-03
-4.32966000 4.70808000e-03
-4.29966000 4.76329000e-03
-4.26966000 4.81963000e-03
-4.21224000 4.93078000e-03
-4.18224000 4.99065000e-03
-4.15224000 5.05180000e-03
-4.12224000 5.11427000e-03
-4.09224000 5.17812000e-03
-4.06224000 5.24338000e-03
-4.03224000 5.31010000e-03
-4.00224000 5.37833000e-03
-3.97224000 5.44812000e-03
-3.94224000 5.51952000e-03
-3.91224000 5.59260000e-03
-3.88224000 5.66741000e-03
-3.85224000 5.74401000e-03
-3.82224000 5.82246000e-03
-3.79224000 5.90284000e-03
-3.76224000 5.98522000e-03
-3.73224000 6.06967000e-03
-3.70224000 6.15627000e-03
-3.67224000 6.24510000e-03
-3.64224000 6.33626000e-03
-3.61224000 6.42983000e-03
-3.58224000 6.52592000e-03
-3.55224000 6.62463000e-03
-3.52224000 6.72606000e-03
-3.49224000 6.83033000e-03
-3.46224000 6.93757000e-03
-3.43224000 7.04791000e-03
-3.37482000 7.26825000e-03
-3.34482000 7.38844000e-03
-3.31482000 7.51232000e-03
-3.28482000 7.64008000e-03
-3.25482000 7.77191000e-03
-3.22482000 7.90801000e-03
-3.19482000 8.04860000e-03
-3.16482000 8.19393000e-03
-3.13482000 8.34425000e-03
-3.10482000 8.49985000e-03
-3.07482000 8.66103000e-03
-3.04482000 8.82812000e-03
-3.01482000 9.00150000e-03
-2.98482000 9.18158000e-03
-2.95482000 9.36880000e-03
-2.92482000 9.56367000e-03
-2.89482000 9.76677000e-03
-2.86482000 9.97875000e-03
-2.83482000 1.02004000e-02
-2.80482000 1.04325000e-02
-2.77482000 1.06762000e-02
-2.74482000 1.09327000e-02
-2.71482000 1.12037000e-02
-2.68482000 1.14911000e-02
-2.65482000 1.17975000e-02
-2.62482000 1.21265000e-02
-2.59482000 1.24832000e-02
-2.53740000 1.32730000e-02
-2.50740000 1.37696000e-02
-2.47740000 1.43603000e-02
-2.44740000 1.51033000e-02
-2.41740000 1.61160000e-02
-2.38740000 1.76567000e-02
-2.35740000 2.03096000e-02
-2.32740000 2.50033000e-02
-2.29740000 2.95692000e-02
-2.26740000 2.70553000e-02
-2.23740000 2.30004000e-02
-2.20740000 2.10630000e-02
-2.17740000 2.04266000e-02
-2.14740000 2.04220000e-02
-2.11740000 2.07527000e-02
-2.08740000 2.12899000e-02
-2.05740000 2.19755000e-02
-2.02740000 2.27838000e-02
-1.99740000 2.37053000e-02
-1.96740000 2.47398000e-02
-1.93740000 2.58932000e-02
-1.90740000 2.71764000e-02
-1.87740000 2.86045000e-02
-1.84740000 3.01976000e-02
-1.81740000 3.19808000e-02
-1.78740000 3.39861000e-02
-1.75740000 3.62532000e-02
-1.69999000 4.15175000e-02
-1.66999000 4.48892000e-02
-1.63999000 4.88174000e-02
-1.60999000 5.34410000e-02
-1.57999000 5.89471000e-02
-1.54999000 6.55916000e-02
-1.51999000 7.37328000e-02
-1.48999000 8.38841000e-02
-1.45999000 9.68025000e-02
-1.42999000 1.13641000e-01
-1.39999000 1.36221000e-01
-1.36999000 1.67556000e-01
-1.33999000 2.12890000e-01
-1.30999000 2.81950000e-01
-1.27999000 3.94116000e-01
-1.24999000 5.91181000e-01
-1.21999000 9.68380000e-01
-1.18999000 1.71507000e+00
-1.15999000 2.76756000e+00
-1.12999000 2.65148000e+00
-1.09999000 1.61134000e+00
-1.06999000 9.67368000e-01
-1.03999000 6.80913000e-01
-1.00999000 5.29340000e-01
-0.97998600 3.98784000e-01
-0.94998600 3.06013000e-01
-0.91998600 2.42945000e-01
-0.86256700 1.86840000e-01
-0.83256700 1.76518000e-01
-0.80256700 1.74154000e-01
-0.77256700 1.78503000e-01
-0.74256700 1.89478000e-01
-0.71256700 2.07965000e-01
-0.68256700 2.35977000e-01
-0.65256700 2.77186000e-01
-0.62256700 3.38076000e-01
-0.59256700 4.30397000e-01
-0.56256700 5.76591000e-01
-0.53256700 8.22625000e-01
-0.50256700 1.26995000e+00
-0.47256700 2.14940000e+00
-0.44256700 3.84418000e+00
-0.41256700 5.58922000e+00
-0.38256700 4.45936000e+00
-0.35256700 2.53404000e+00
-0.32256700 1.46120000e+00
-0.29256700 9.22879000e-01
-0.26256700 6.33671000e-01
-0.23256700 4.65168000e-01
-0.20256700 3.60181000e-01
-0.17256700 2.91356000e-01
-0.14256700 2.44596000e-01
-0.11256700 2.12174000e-01
-0.08256720 1.89670000e-01
-0.02514860 1.66055000e-01
0.00485142 1.62317000e-01
0.03485140 1.65273000e-01
0.06485140 1.76446000e-01
0.09485140 1.92091000e-01
0.12485100 2.06383000e-01
0.15485100 2.24830000e-01
0.18485100 2.66662000e-01
0.21485100 3.53201000e-01
0.24485100 5.27946000e-01
0.27485100 8.45051000e-01
0.30485100 1.07203000e+00
0.33485100 8.72141000e-01
0.36485100 7.07345000e-01
0.39485100 7.30394000e-01
0.42485100 9.01391000e-01
0.45485100 1.01124000e+00
0.48485100 7.54161000e-01
0.51485100 4.98721000e-01
0.54485100 3.71567000e-01
0.57485100 3.16551000e-01
0.60485100 2.95687000e-01
0.63485100 2.92468000e-01
0.66485100 3.08509000e-01
0.69485100 3.47828000e-01
0.72485100 4.17890000e-01
0.75485100 5.32901000e-01
