# E(MeV)  S_NSDRNSDR(K=1) for Ni73_DDPCX
-7.56192000 -7.48549000e-04
-7.53192000 -6.60247000e-04
-7.50192000 -5.72668000e-04
-7.47192000 -4.85797000e-04
-7.44192000 -3.99618000e-04
-7.41192000 -3.14115000e-04
-7.38192000 -2.29274000e-04
-7.35192000 -1.45079000e-04
-7.32192000 -6.15160000e-05
-7.29192000 2.14282000e-05
-7.26192000 1.03768000e-04
-7.23192000 1.85516000e-04
-7.20192000 2.66685000e-04
-7.17192000 3.47289000e-04
-7.14192000 4.27339000e-04
-7.11192000 5.06849000e-04
-7.08192000 5.85828000e-04
-7.05192000 6.64291000e-04
-7.02192000 7.42246000e-04
-6.99192000 8.19707000e-04
-6.96192000 8.96683000e-04
-6.93192000 9.73185000e-04
-6.90192000 1.04922000e-03
-6.87192000 1.12481000e-03
-6.84192000 1.19995000e-03
-6.81192000 1.27466000e-03
-6.78192000 1.34895000e-03
-6.72450000 1.48998000e-03
-6.69450000 1.56308000e-03
-6.66450000 1.63580000e-03
-6.63450000 1.70814000e-03
-6.60450000 1.78011000e-03
-6.57450000 1.85171000e-03
-6.54450000 1.92296000e-03
-6.51450000 1.99387000e-03
-6.48450000 2.06444000e-03
-6.45450000 2.13468000e-03
-6.42450000 2.20460000e-03
-6.39450000 2.27420000e-03
-6.36450000 2.34350000e-03
-6.33450000 2.41250000e-03
-6.30450000 2.48120000e-03
-6.27450000 2.54962000e-03
-6.24450000 2.61777000e-03
-6.21450000 2.68565000e-03
-6.18450000 2.75326000e-03
-6.15450000 2.82061000e-03
-6.12450000 2.88772000e-03
-6.09450000 2.95458000e-03
-6.06450000 3.02121000e-03
-6.03450000 3.08761000e-03
-6.00450000 3.15378000e-03
-5.97450000 3.21974000e-03
-5.94450000 3.28549000e-03
-5.88708000 3.41077000e-03
-5.85708000 3.47594000e-03
-5.82708000 3.54093000e-03
-5.79708000 3.60574000e-03
-5.76708000 3.67038000e-03
-5.73708000 3.73485000e-03
-5.70708000 3.79917000e-03
-5.67708000 3.86333000e-03
-5.64708000 3.92734000e-03
-5.61708000 3.99121000e-03
-5.58708000 4.05495000e-03
-5.55708000 4.11857000e-03
-5.52708000 4.18206000e-03
-5.49708000 4.24545000e-03
-5.46708000 4.30872000e-03
-5.43708000 4.37190000e-03
-5.40708000 4.43499000e-03
-5.37708000 4.49799000e-03
-5.34708000 4.56093000e-03
-5.31708000 4.62379000e-03
-5.28708000 4.68661000e-03
-5.25708000 4.74937000e-03
-5.22708000 4.81211000e-03
-5.19708000 4.87482000e-03
-5.16708000 4.93752000e-03
-5.13708000 5.00023000e-03
-5.10708000 5.06296000e-03
-5.04966000 5.18316000e-03
-5.01966000 5.24609000e-03
-4.98966000 5.30914000e-03
-4.95966000 5.37235000e-03
-4.92966000 5.43579000e-03
-4.89966000 5.49950000e-03
-4.86966000 5.56360000e-03
-4.83966000 5.62820000e-03
-4.80966000 5.69347000e-03
-4.77966000 5.75969000e-03
-4.74966000 5.82725000e-03
-4.71966000 5.89682000e-03
-4.68966000 5.96952000e-03
-4.65966000 6.04741000e-03
-4.62966000 6.13456000e-03
-4.59966000 6.23972000e-03
-4.56966000 6.38244000e-03
-4.53966000 6.60107000e-03
-4.50966000 6.88194000e-03
-4.47966000 6.92634000e-03
-4.44966000 6.78174000e-03
-4.41966000 6.71462000e-03
-4.38966000 6.72063000e-03
-4.35966000 6.76649000e-03
-4.32966000 6.83716000e-03
-4.29966000 6.92414000e-03
-4.26966000 7.02563000e-03
-4.21224000 7.22688000e-03
-4.18224000 7.34790000e-03
-4.15224000 7.51464000e-03
-4.12224000 7.77620000e-03
-4.09224000 8.21501000e-03
-4.06224000 9.02456000e-03
-4.03224000 1.05387000e-02
-4.00224000 1.21639000e-02
-3.97224000 1.13170000e-02
-3.94224000 9.68161000e-03
-3.91224000 8.78733000e-03
-3.88224000 8.37040000e-03
-3.85224000 8.17626000e-03
-3.82224000 8.08983000e-03
-3.79224000 8.05992000e-03
-3.76224000 8.06208000e-03
-3.73224000 8.08369000e-03
-3.70224000 8.11778000e-03
-3.67224000 8.16028000e-03
-3.64224000 8.20868000e-03
-3.61224000 8.26139000e-03
-3.58224000 8.31736000e-03
-3.55224000 8.37587000e-03
-3.52224000 8.43645000e-03
-3.49224000 8.49873000e-03
-3.46224000 8.56247000e-03
-3.43224000 8.62751000e-03
-3.37482000 8.75516000e-03
-3.34482000 8.82338000e-03
-3.31482000 8.89260000e-03
-3.28482000 8.96281000e-03
-3.25482000 9.03400000e-03
-3.22482000 9.10622000e-03
-3.19482000 9.17949000e-03
-3.16482000 9.25389000e-03
-3.13482000 9.32952000e-03
-3.10482000 9.40652000e-03
-3.07482000 9.48511000e-03
-3.04482000 9.56567000e-03
-3.01482000 9.64882000e-03
-2.98482000 9.73579000e-03
-2.95482000 9.82915000e-03
-2.92482000 9.93465000e-03
-2.89482000 1.00621000e-02
-2.86482000 1.01959000e-02
-2.83482000 1.02646000e-02
-2.80482000 1.03094000e-02
-2.77482000 1.03731000e-02
-2.74482000 1.04545000e-02
-2.71482000 1.05469000e-02
-2.68482000 1.06467000e-02
-2.65482000 1.07529000e-02
-2.62482000 1.08654000e-02
-2.59482000 1.09847000e-02
-2.53740000 1.12359000e-02
-2.50740000 1.13825000e-02
-2.47740000 1.15429000e-02
-2.44740000 1.17210000e-02
-2.41740000 1.19222000e-02
-2.38740000 1.21546000e-02
-2.35740000 1.24302000e-02
-2.32740000 1.27677000e-02
-2.29740000 1.31978000e-02
-2.26740000 1.37732000e-02
-2.23740000 1.45900000e-02
-2.20740000 1.58360000e-02
-2.17740000 1.79091000e-02
-2.14740000 2.17100000e-02
-2.11740000 2.91739000e-02
-2.08740000 4.14442000e-02
-2.05740000 4.50006000e-02
-2.02740000 3.33976000e-02
-1.99740000 2.44439000e-02
-1.96740000 2.00006000e-02
-1.93740000 1.78103000e-02
-1.90740000 1.66833000e-02
-1.87740000 1.61002000e-02
-1.84740000 1.58239000e-02
-1.81740000 1.57390000e-02
-1.78740000 1.57869000e-02
-1.75740000 1.59392000e-02
-1.69999000 1.65016000e-02
-1.66999000 1.69625000e-02
-1.63999000 1.74938000e-02
-1.60999000 1.79891000e-02
-1.57999000 1.86028000e-02
-1.54999000 1.94332000e-02
-1.51999000 2.05353000e-02
-1.48999000 2.20258000e-02
-1.45999000 2.41399000e-02
-1.42999000 2.72877000e-02
-1.39999000 3.19520000e-02
-1.36999000 3.75510000e-02
-1.33999000 4.24974000e-02
-1.30999000 5.17330000e-02
-1.27999000 7.07092000e-02
-1.24999000 9.78325000e-02
-1.21999000 1.22090000e-01
-1.18999000 1.39795000e-01
-1.15999000 1.24645000e-01
-1.12999000 1.14227000e-01
-1.09999000 1.30010000e-01
-1.06999000 1.86792000e-01
-1.03999000 2.98817000e-01
-1.00999000 3.54716000e-01
-0.97998600 2.43792000e-01
-0.94998600 1.43945000e-01
-0.91998600 9.24161000e-02
-0.86256700 5.24213000e-02
-0.83256700 4.33605000e-02
-0.80256700 3.76579000e-02
-0.77256700 3.39400000e-02
-0.74256700 3.14788000e-02
-0.71256700 2.98597000e-02
-0.68256700 2.88390000e-02
-0.65256700 2.82882000e-02
-0.62256700 2.80997000e-02
-0.59256700 2.81316000e-02
-0.56256700 2.84322000e-02
-0.53256700 2.90566000e-02
-0.50256700 3.00213000e-02
-0.47256700 3.13722000e-02
-0.44256700 3.31979000e-02
-0.41256700 3.56486000e-02
-0.38256700 3.89781000e-02
-0.35256700 4.36387000e-02
-0.32256700 5.04815000e-02
-0.29256700 6.08572000e-02
-0.26256700 7.40775000e-02
-0.23256700 8.69298000e-02
-0.20256700 1.07706000e-01
-0.17256700 1.47150000e-01
-0.14256700 2.22817000e-01
-0.11256700 3.73857000e-01
-0.08256720 6.34010000e-01
-0.02514860 5.60547000e-01
0.00485142 3.99416000e-01
0.03485140 3.52610000e-01
0.06485140 2.75108000e-01
0.09485140 1.79830000e-01
0.12485100 1.24976000e-01
0.15485100 9.70152000e-02
0.18485100 7.76691000e-02
0.21485100 6.29662000e-02
0.24485100 5.32408000e-02
0.27485100 4.67665000e-02
0.30485100 4.19381000e-02
0.33485100 3.84493000e-02
0.36485100 3.59646000e-02
0.39485100 3.41664000e-02
0.42485100 3.28622000e-02
0.45485100 3.19388000e-02
0.48485100 3.13316000e-02
0.51485100 3.10114000e-02
0.54485100 3.09842000e-02
0.57485100 3.13056000e-02
0.60485100 3.21231000e-02
0.63485100 3.37875000e-02
0.66485100 3.71164000e-02
0.69485100 4.35325000e-02
0.72485100 5.06840000e-02
0.75485100 4.75570000e-02
