# E(MeV)  S_NSDRNSDR(Total=K0+2*K1) for Ni73_DDPCX
-7.56192000 -1.22009600e-03
-7.53192000 -9.71278000e-04
-7.50192000 -7.24286000e-04
-7.47192000 -4.79084000e-04
-7.44192000 -2.35634000e-04
-7.41192000 6.10500000e-06
-7.38192000 2.46166000e-04
-7.35192000 4.84588000e-04
-7.32192000 7.21404000e-04
-7.29192000 9.56649400e-04
-7.26192000 1.19035700e-03
-7.23192000 1.42256200e-03
-7.20192000 1.65329000e-03
-7.17192000 1.88257800e-03
-7.14192000 2.11044800e-03
-7.11192000 2.33694800e-03
-7.08192000 2.56208600e-03
-7.05192000 2.78591200e-03
-7.02192000 3.00843200e-03
-6.99192000 3.22969400e-03
-6.96192000 3.44971600e-03
-6.93192000 3.66852000e-03
-6.90192000 3.88613000e-03
-6.87192000 4.10260000e-03
-6.84192000 4.31792000e-03
-6.81192000 4.53213000e-03
-6.78192000 4.74527000e-03
-6.72450000 5.15023000e-03
-6.69450000 5.36031000e-03
-6.66450000 5.56942000e-03
-6.63450000 5.77755000e-03
-6.60450000 5.98472000e-03
-6.57450000 6.19096000e-03
-6.54450000 6.39629000e-03
-6.51450000 6.60074000e-03
-6.48450000 6.80432000e-03
-6.45450000 7.00705000e-03
-6.42450000 7.20896000e-03
-6.39450000 7.41005000e-03
-6.36450000 7.61037000e-03
-6.33450000 7.80992000e-03
-6.30450000 8.00870000e-03
-6.27450000 8.20676000e-03
-6.24450000 8.40412000e-03
-6.21450000 8.60079000e-03
-6.18450000 8.79677000e-03
-6.15450000 8.99208000e-03
-6.12450000 9.18678000e-03
-6.09450000 9.38084000e-03
-6.06450000 9.57430000e-03
-6.03450000 9.76718000e-03
-6.00450000 9.95948000e-03
-5.97450000 1.01512300e-02
-5.94450000 1.03424500e-02
-5.88708000 1.07070100e-02
-5.85708000 1.08967500e-02
-5.82708000 1.10860400e-02
-5.79708000 1.12748700e-02
-5.76708000 1.14632700e-02
-5.73708000 1.16512400e-02
-5.70708000 1.18388300e-02
-5.67708000 1.20260300e-02
-5.64708000 1.22128400e-02
-5.61708000 1.23993100e-02
-5.58708000 1.25854500e-02
-5.55708000 1.27713000e-02
-5.52708000 1.29568200e-02
-5.49708000 1.31420900e-02
-5.46708000 1.33270800e-02
-5.43708000 1.35118500e-02
-5.40708000 1.36964000e-02
-5.37708000 1.38807400e-02
-5.34708000 1.40649300e-02
-5.31708000 1.42489500e-02
-5.28708000 1.44328800e-02
-5.25708000 1.46166800e-02
-5.22708000 1.48004500e-02
-5.19708000 1.49841700e-02
-5.16708000 1.51678900e-02
-5.13708000 1.53516800e-02
-5.10708000 1.55355500e-02
-5.04966000 1.58879500e-02
-5.01966000 1.60724800e-02
-4.98966000 1.62573800e-02
-4.95966000 1.64427900e-02
-4.92966000 1.66288800e-02
-4.89966000 1.68158100e-02
-4.86966000 1.70039100e-02
-4.83966000 1.71935300e-02
-4.80966000 1.73852100e-02
-4.77966000 1.75797900e-02
-4.74966000 1.77785000e-02
-4.71966000 1.79834100e-02
-4.68966000 1.81980200e-02
-4.65966000 1.84287400e-02
-4.62966000 1.86881900e-02
-4.59966000 1.90033300e-02
-4.56966000 1.94345800e-02
-4.53966000 2.01044900e-02
-4.50966000 2.10160800e-02
-4.47966000 2.12551800e-02
-4.44966000 2.07434400e-02
-4.41966000 2.04453000e-02
-4.38966000 2.04033300e-02
-4.35966000 2.04962800e-02
-4.32966000 2.06650600e-02
-4.29966000 2.08803300e-02
-4.26966000 2.11333800e-02
-4.21224000 2.16400200e-02
-4.18224000 2.19330800e-02
-4.15224000 2.23194500e-02
-4.12224000 2.28980800e-02
-4.09224000 2.38328600e-02
-4.06224000 2.55101400e-02
-4.03224000 2.85973200e-02
-4.00224000 3.19071600e-02
-3.97224000 3.02732400e-02
-3.94224000 2.70627400e-02
-3.91224000 2.53348200e-02
-3.88224000 2.45619300e-02
-3.85224000 2.42349400e-02
-3.82224000 2.41236800e-02
-3.79224000 2.41257700e-02
-3.76224000 2.41923100e-02
-3.73224000 2.42980700e-02
-3.70224000 2.44291100e-02
-3.67224000 2.45772900e-02
-3.64224000 2.47376100e-02
-3.61224000 2.49068900e-02
-3.58224000 2.50830500e-02
-3.55224000 2.52646600e-02
-3.52224000 2.54508000e-02
-3.49224000 2.56407300e-02
-3.46224000 2.58340100e-02
-3.43224000 2.60303200e-02
-3.37482000 2.64136800e-02
-3.34482000 2.66177600e-02
-3.31482000 2.68243600e-02
-3.28482000 2.70335000e-02
-3.25482000 2.72452000e-02
-3.22482000 2.74595900e-02
-3.19482000 2.76767700e-02
-3.16482000 2.78969300e-02
-3.13482000 2.81203500e-02
-3.10482000 2.83474000e-02
-3.07482000 2.85786300e-02
-3.04482000 2.88149900e-02
-3.01482000 2.90580200e-02
-2.98482000 2.93107200e-02
-2.95482000 2.95793600e-02
-2.92482000 2.98779000e-02
-2.89482000 3.02306000e-02
-2.86482000 3.06008000e-02
-2.83482000 3.08116000e-02
-2.80482000 3.09622000e-02
-2.77482000 3.11619000e-02
-2.74482000 3.14056000e-02
-2.71482000 3.16767000e-02
-2.68482000 3.19666000e-02
-2.65482000 3.22729000e-02
-2.62482000 3.25956000e-02
-2.59482000 3.29360000e-02
-2.53740000 3.36472000e-02
-2.50740000 3.40587000e-02
-2.47740000 3.45063000e-02
-2.44740000 3.50000000e-02
-2.41740000 3.55540000e-02
-2.38740000 3.61897000e-02
-2.35740000 3.69388000e-02
-2.32740000 3.78517000e-02
-2.29740000 3.90113000e-02
-2.26740000 4.05627000e-02
-2.23740000 4.27747000e-02
-2.20740000 4.61841000e-02
-2.17740000 5.19502000e-02
-2.14740000 6.26680000e-02
-2.11740000 8.28629000e-02
-2.08740000 1.09634800e-01
-2.05740000 1.12013500e-01
-2.02740000 8.48457000e-02
-1.99740000 6.49952000e-02
-1.96740000 5.51981000e-02
-1.93740000 5.03947000e-02
-1.90740000 4.79677000e-02
-1.87740000 4.67705000e-02
-1.84740000 4.62767000e-02
-1.81740000 4.62291000e-02
-1.78740000 4.64968000e-02
-1.75740000 4.70169000e-02
-1.69999000 4.86708000e-02
-1.66999000 4.99349000e-02
-1.63999000 5.13924000e-02
-1.60999000 5.28401000e-02
-1.57999000 5.46000000e-02
-1.54999000 5.68872000e-02
-1.51999000 5.98377000e-02
-1.48999000 6.37222000e-02
-1.45999000 6.90660000e-02
-1.42999000 7.67714000e-02
-1.39999000 8.79339000e-02
-1.36999000 1.01623800e-01
-1.33999000 1.15099600e-01
-1.30999000 1.39107300e-01
-1.27999000 1.86098400e-01
-1.24999000 2.52768700e-01
-1.21999000 3.11726200e-01
-1.18999000 3.64169100e-01
-1.15999000 3.68883000e-01
-1.12999000 3.88899000e-01
-1.09999000 4.66861000e-01
-1.06999000 6.82735000e-01
-1.03999000 9.72889000e-01
-1.00999000 9.74178000e-01
-0.97998600 6.43017000e-01
-0.94998600 3.86237800e-01
-0.91998600 2.54078300e-01
-0.86256700 1.49238600e-01
-0.83256700 1.24925600e-01
-0.80256700 1.09486200e-01
-0.77256700 9.93602000e-02
-0.74256700 9.26397000e-02
-0.71256700 8.82176000e-02
-0.68256700 8.54232000e-02
-0.65256700 8.39252000e-02
-0.62256700 8.34604000e-02
-0.59256700 8.37123000e-02
-0.56256700 8.47675000e-02
-0.53256700 8.67482000e-02
-0.50256700 8.97217000e-02
-0.47256700 9.38423000e-02
-0.44256700 9.93913000e-02
-0.41256700 1.06839900e-01
-0.38256700 1.16988800e-01
-0.35256700 1.31279500e-01
-0.32256700 1.52440800e-01
-0.29256700 1.84603500e-01
-0.26256700 2.24417300e-01
-0.23256700 2.63256200e-01
-0.20256700 3.28740000e-01
-0.17256700 4.55051000e-01
-0.14256700 7.01081000e-01
-0.11256700 1.18247900e+00
-0.08256720 1.87040900e+00
-0.02514860 1.46035800e+00
0.00485142 1.08322700e+00
0.03485140 1.03621000e+00
0.06485140 9.65106000e-01
0.09485140 7.03126000e-01
0.12485100 4.69667000e-01
0.15485100 3.46020400e-01
0.18485100 2.67554200e-01
0.21485100 2.10312900e-01
0.24485100 1.72601800e-01
0.27485100 1.48352400e-01
0.30485100 1.31475800e-01
0.33485100 1.19631700e-01
0.36485100 1.11247500e-01
0.39485100 1.05194100e-01
0.42485100 1.00797700e-01
0.45485100 9.76546000e-02
0.48485100 9.55237000e-02
0.51485100 9.42773000e-02
0.54485100 9.38899000e-02
0.57485100 9.44657000e-02
0.60485100 9.63348000e-02
0.63485100 1.00312700e-01
0.66485100 1.08321900e-01
0.69485100 1.23746400e-01
0.72485100 1.41258800e-01
0.75485100 1.34590300e-01
