# E(MeV)  S_GAMTGAMT(K=0) for Ni73_DDPCX
-7.56192000 1.86858000e-03
-7.53192000 1.88006000e-03
-7.50192000 1.89166000e-03
-7.47192000 1.90337000e-03
-7.44192000 1.91520000e-03
-7.41192000 1.92715000e-03
-7.38192000 1.93923000e-03
-7.35192000 1.95143000e-03
-7.32192000 1.96375000e-03
-7.29192000 1.97620000e-03
-7.26192000 1.98878000e-03
-7.23192000 2.00149000e-03
-7.20192000 2.01434000e-03
-7.17192000 2.02732000e-03
-7.14192000 2.04044000e-03
-7.11192000 2.05370000e-03
-7.08192000 2.06710000e-03
-7.05192000 2.08064000e-03
-7.02192000 2.09433000e-03
-6.99192000 2.10817000e-03
-6.96192000 2.12216000e-03
-6.93192000 2.13630000e-03
-6.90192000 2.15060000e-03
-6.87192000 2.16505000e-03
-6.84192000 2.17967000e-03
-6.81192000 2.19445000e-03
-6.78192000 2.20939000e-03
-6.72450000 2.23847000e-03
-6.69450000 2.25391000e-03
-6.66450000 2.26953000e-03
-6.63450000 2.28533000e-03
-6.60450000 2.30131000e-03
-6.57450000 2.31748000e-03
-6.54450000 2.33383000e-03
-6.51450000 2.35038000e-03
-6.48450000 2.36712000e-03
-6.45450000 2.38406000e-03
-6.42450000 2.40120000e-03
-6.39450000 2.41855000e-03
-6.36450000 2.43611000e-03
-6.33450000 2.45388000e-03
-6.30450000 2.47186000e-03
-6.27450000 2.49007000e-03
-6.24450000 2.50849000e-03
-6.21450000 2.52715000e-03
-6.18450000 2.54604000e-03
-6.15450000 2.56516000e-03
-6.12450000 2.58453000e-03
-6.09450000 2.60414000e-03
-6.06450000 2.62400000e-03
-6.03450000 2.64411000e-03
-6.00450000 2.66448000e-03
-5.97450000 2.68512000e-03
-5.94450000 2.70602000e-03
-5.88708000 2.74680000e-03
-5.85708000 2.76851000e-03
-5.82708000 2.79052000e-03
-5.79708000 2.81282000e-03
-5.76708000 2.83542000e-03
-5.73708000 2.85832000e-03
-5.70708000 2.88154000e-03
-5.67708000 2.90508000e-03
-5.64708000 2.92895000e-03
-5.61708000 2.95314000e-03
-5.58708000 2.97768000e-03
-5.55708000 3.00256000e-03
-5.52708000 3.02779000e-03
-5.49708000 3.05338000e-03
-5.46708000 3.07934000e-03
-5.43708000 3.10568000e-03
-5.40708000 3.13240000e-03
-5.37708000 3.15951000e-03
-5.34708000 3.18702000e-03
-5.31708000 3.21495000e-03
-5.28708000 3.24328000e-03
-5.25708000 3.27205000e-03
-5.22708000 3.30125000e-03
-5.19708000 3.33090000e-03
-5.16708000 3.36101000e-03
-5.13708000 3.39158000e-03
-5.10708000 3.42263000e-03
-5.04966000 3.48343000e-03
-5.01966000 3.51594000e-03
-4.98966000 3.54897000e-03
-4.95966000 3.58254000e-03
-4.92966000 3.61665000e-03
-4.89966000 3.65133000e-03
-4.86966000 3.68658000e-03
-4.83966000 3.72243000e-03
-4.80966000 3.75887000e-03
-4.77966000 3.79594000e-03
-4.74966000 3.83364000e-03
-4.71966000 3.87200000e-03
-4.68966000 3.91103000e-03
-4.65966000 3.95074000e-03
-4.62966000 3.99116000e-03
-4.59966000 4.03230000e-03
-4.56966000 4.07418000e-03
-4.53966000 4.11683000e-03
-4.50966000 4.16026000e-03
-4.47966000 4.20450000e-03
-4.44966000 4.24957000e-03
-4.41966000 4.29549000e-03
-4.38966000 4.34229000e-03
-4.35966000 4.38999000e-03
-4.32966000 4.43862000e-03
-4.29966000 4.48820000e-03
-4.26966000 4.53877000e-03
-4.21224000 4.63842000e-03
-4.18224000 4.69203000e-03
-4.15224000 4.74676000e-03
-4.12224000 4.80263000e-03
-4.09224000 4.85968000e-03
-4.06224000 4.91795000e-03
-4.03224000 4.97749000e-03
-4.00224000 5.03832000e-03
-3.97224000 5.10051000e-03
-3.94224000 5.16408000e-03
-3.91224000 5.22910000e-03
-3.88224000 5.29561000e-03
-3.85224000 5.36367000e-03
-3.82224000 5.43333000e-03
-3.79224000 5.50466000e-03
-3.76224000 5.57771000e-03
-3.73224000 5.65255000e-03
-3.70224000 5.72926000e-03
-3.67224000 5.80791000e-03
-3.64224000 5.88857000e-03
-3.61224000 5.97133000e-03
-3.58224000 6.05629000e-03
-3.55224000 6.14353000e-03
-3.52224000 6.23316000e-03
-3.49224000 6.32529000e-03
-3.46224000 6.42004000e-03
-3.43224000 6.51754000e-03
-3.37482000 6.71236000e-03
-3.34482000 6.81874000e-03
-3.31482000 6.92851000e-03
-3.28482000 7.04189000e-03
-3.25482000 7.15914000e-03
-3.22482000 7.28052000e-03
-3.19482000 7.40639000e-03
-3.16482000 7.53715000e-03
-3.13482000 7.67333000e-03
-3.10482000 7.81556000e-03
-3.07482000 7.96473000e-03
-3.04482000 8.12206000e-03
-3.01482000 8.28930000e-03
-2.98482000 8.46914000e-03
-2.95482000 8.66594000e-03
-2.92482000 8.88722000e-03
-2.89482000 9.14699000e-03
-2.86482000 9.47352000e-03
-2.83482000 9.92875000e-03
-2.80482000 1.06530000e-02
-2.77482000 1.18775000e-02
-2.74482000 1.31296000e-02
-2.71482000 1.26533000e-02
-2.68482000 1.17221000e-02
-2.65482000 1.13148000e-02
-2.62482000 1.12388000e-02
-2.59482000 1.13237000e-02
-2.53740000 1.16942000e-02
-2.50740000 1.19490000e-02
-2.47740000 1.22331000e-02
-2.44740000 1.25430000e-02
-2.41740000 1.28772000e-02
-2.38740000 1.32357000e-02
-2.35740000 1.36191000e-02
-2.32740000 1.40289000e-02
-2.29740000 1.44668000e-02
-2.26740000 1.49351000e-02
-2.23740000 1.54368000e-02
-2.20740000 1.59749000e-02
-2.17740000 1.65535000e-02
-2.14740000 1.71769000e-02
-2.11740000 1.78504000e-02
-2.08740000 1.85800000e-02
-2.05740000 1.93729000e-02
-2.02740000 2.02374000e-02
-1.99740000 2.11835000e-02
-1.96740000 2.22229000e-02
-1.93740000 2.33697000e-02
-1.90740000 2.46408000e-02
-1.87740000 2.60568000e-02
-1.84740000 2.76428000e-02
-1.81740000 2.94298000e-02
-1.78740000 3.14565000e-02
-1.75740000 3.37714000e-02
-1.69999000 3.92456000e-02
-1.66999000 4.28236000e-02
-1.63999000 4.70600000e-02
-1.60999000 5.21366000e-02
-1.57999000 5.83025000e-02
-1.54999000 6.59073000e-02
-1.51999000 7.54535000e-02
-1.48999000 8.76835000e-02
-1.45999000 1.03730000e-01
-1.42999000 1.25386000e-01
-1.39999000 1.55620000e-01
-1.36999000 1.99609000e-01
-1.33999000 2.66954000e-01
-1.30999000 3.76799000e-01
-1.27999000 5.70426000e-01
-1.24999000 9.41967000e-01
-1.21999000 1.67962000e+00
-1.18999000 2.73010000e+00
-1.15999000 2.62873000e+00
-1.12999000 1.57635000e+00
-1.09999000 8.99813000e-01
-1.06999000 5.55844000e-01
-1.03999000 3.73203000e-01
-1.00999000 2.69585000e-01
-0.97998600 2.06608000e-01
-0.94998600 1.66113000e-01
-0.91998600 1.38965000e-01
-0.86256700 1.08089000e-01
-0.83256700 9.86224000e-02
-0.80256700 9.21196000e-02
-0.77256700 8.79011000e-02
-0.74256700 8.55436000e-02
-0.71256700 8.47987000e-02
-0.68256700 8.55488000e-02
-0.65256700 8.77861000e-02
-0.62256700 9.16098000e-02
-0.59256700 9.72394000e-02
-0.56256700 1.05048000e-01
-0.53256700 1.15625000e-01
-0.50256700 1.29886000e-01
-0.47256700 1.49268000e-01
-0.44256700 1.76093000e-01
-0.41256700 2.14253000e-01
-0.38256700 2.70618000e-01
-0.35256700 3.58086000e-01
-0.32256700 5.02711000e-01
-0.29256700 7.61351000e-01
-0.26256700 1.26375000e+00
-0.23256700 2.24906000e+00
-0.20256700 3.45714000e+00
-0.17256700 3.00732000e+00
-0.14256700 1.75187000e+00
-0.11256700 1.01291000e+00
-0.08256720 6.45259000e-01
-0.02514860 3.51637000e-01
0.00485142 2.86206000e-01
0.03485140 2.50069000e-01
0.06485140 2.36085000e-01
0.09485140 2.42058000e-01
0.12485100 2.57974000e-01
0.15485100 2.66922000e-01
0.18485100 2.93576000e-01
0.21485100 3.74513000e-01
0.24485100 5.40854000e-01
0.27485100 7.86553000e-01
0.30485100 8.17327000e-01
0.33485100 6.12757000e-01
0.36485100 4.98005000e-01
0.39485100 4.74657000e-01
0.42485100 5.65811000e-01
0.45485100 8.02932000e-01
0.48485100 9.70995000e-01
0.51485100 7.30709000e-01
0.54485100 4.79604000e-01
0.57485100 3.54108000e-01
0.60485100 2.98718000e-01
0.63485100 2.79775000e-01
0.66485100 2.84926000e-01
0.69485100 3.11400000e-01
0.72485100 3.63185000e-01
0.75485100 4.45392000e-01
