# E(MeV)  S_GAMTGAMT(K=1) for Ni77_DDPCX
-12.96950000 1.11245000e-03
-12.93950000 1.11696000e-03
-12.90950000 1.12151000e-03
-12.87950000 1.12608000e-03
-12.84950000 1.13069000e-03
-12.81950000 1.13532000e-03
-12.78950000 1.13999000e-03
-12.75950000 1.14468000e-03
-12.72950000 1.14941000e-03
-12.69950000 1.15417000e-03
-12.66950000 1.15896000e-03
-12.63950000 1.16378000e-03
-12.60950000 1.16863000e-03
-12.57950000 1.17352000e-03
-12.54950000 1.17844000e-03
-12.51950000 1.18339000e-03
-12.48950000 1.18838000e-03
-12.45950000 1.19339000e-03
-12.42950000 1.19845000e-03
-12.39950000 1.20353000e-03
-12.36950000 1.20866000e-03
-12.33950000 1.21381000e-03
-12.30950000 1.21901000e-03
-12.27950000 1.22424000e-03
-12.24950000 1.22950000e-03
-12.21950000 1.23480000e-03
-12.18950000 1.24014000e-03
-12.15950000 1.24551000e-03
-12.12950000 1.25093000e-03
-12.09950000 1.25638000e-03
-12.06950000 1.26187000e-03
-12.03950000 1.26739000e-03
-12.00950000 1.27296000e-03
-11.97950000 1.27857000e-03
-11.94950000 1.28421000e-03
-11.91950000 1.28990000e-03
-11.88950000 1.29563000e-03
-11.85950000 1.30140000e-03
-11.82950000 1.30721000e-03
-11.79950000 1.31306000e-03
-11.76950000 1.31895000e-03
-11.73950000 1.32489000e-03
-11.70950000 1.33087000e-03
-11.67950000 1.33690000e-03
-11.64950000 1.34296000e-03
-11.59140000 1.35486000e-03
-11.56140000 1.36106000e-03
-11.53140000 1.36731000e-03
-11.50140000 1.37360000e-03
-11.47140000 1.37995000e-03
-11.44140000 1.38634000e-03
-11.41140000 1.39277000e-03
-11.38140000 1.39926000e-03
-11.35140000 1.40579000e-03
-11.32140000 1.41238000e-03
-11.29140000 1.41901000e-03
-11.26140000 1.42570000e-03
-11.23140000 1.43244000e-03
-11.20140000 1.43923000e-03
-11.17140000 1.44607000e-03
-11.14140000 1.45296000e-03
-11.11140000 1.45991000e-03
-11.08140000 1.46691000e-03
-11.05140000 1.47397000e-03
-11.02140000 1.48108000e-03
-10.99140000 1.48825000e-03
-10.96140000 1.49548000e-03
-10.93140000 1.50276000e-03
-10.90140000 1.51011000e-03
-10.87140000 1.51751000e-03
-10.84140000 1.52497000e-03
-10.81140000 1.53249000e-03
-10.78140000 1.54007000e-03
-10.75140000 1.54771000e-03
-10.72140000 1.55542000e-03
-10.69140000 1.56318000e-03
-10.66140000 1.57102000e-03
-10.63140000 1.57891000e-03
-10.60140000 1.58687000e-03
-10.57140000 1.59490000e-03
-10.54140000 1.60300000e-03
-10.51140000 1.61116000e-03
-10.48140000 1.61939000e-03
-10.45140000 1.62769000e-03
-10.42140000 1.63606000e-03
-10.39140000 1.64450000e-03
-10.36140000 1.65302000e-03
-10.33140000 1.66160000e-03
-10.30140000 1.67026000e-03
-10.27140000 1.67900000e-03
-10.21320000 1.69615000e-03
-10.18320000 1.70511000e-03
-10.15320000 1.71415000e-03
-10.12320000 1.72327000e-03
-10.09320000 1.73246000e-03
-10.06320000 1.74174000e-03
-10.03320000 1.75110000e-03
-10.00320000 1.76055000e-03
-9.97318000 1.77008000e-03
-9.94318000 1.77969000e-03
-9.91318000 1.78939000e-03
-9.88318000 1.79918000e-03
-9.85318000 1.80906000e-03
-9.82318000 1.81903000e-03
-9.79318000 1.82909000e-03
-9.76318000 1.83925000e-03
-9.73318000 1.84950000e-03
-9.70318000 1.85984000e-03
-9.67318000 1.87028000e-03
-9.64318000 1.88081000e-03
-9.61318000 1.89145000e-03
-9.58318000 1.90219000e-03
-9.55318000 1.91303000e-03
-9.52318000 1.92397000e-03
-9.49318000 1.93502000e-03
-9.46318000 1.94617000e-03
-9.43318000 1.95743000e-03
-9.40318000 1.96880000e-03
-9.37318000 1.98028000e-03
-9.34318000 1.99187000e-03
-9.31318000 2.00358000e-03
-9.28318000 2.01540000e-03
-9.25318000 2.02735000e-03
-9.22318000 2.03940000e-03
-9.19318000 2.05158000e-03
-9.16318000 2.06389000e-03
-9.13318000 2.07631000e-03
-9.10318000 2.08887000e-03
-9.07318000 2.10155000e-03
-9.04318000 2.11436000e-03
-9.01318000 2.12730000e-03
-8.98318000 2.14038000e-03
-8.95318000 2.15359000e-03
-8.92318000 2.16694000e-03
-8.89318000 2.18043000e-03
-8.83500000 2.20700000e-03
-8.80500000 2.22092000e-03
-8.77500000 2.23498000e-03
-8.74500000 2.24919000e-03
-8.71500000 2.26356000e-03
-8.68500000 2.27809000e-03
-8.65500000 2.29277000e-03
-8.62500000 2.30761000e-03
-8.59500000 2.32262000e-03
-8.56500000 2.33779000e-03
-8.53500000 2.35314000e-03
-8.50500000 2.36865000e-03
-8.47500000 2.38434000e-03
-8.44500000 2.40021000e-03
-8.41500000 2.41625000e-03
-8.38500000 2.43249000e-03
-8.35500000 2.44890000e-03
-8.32500000 2.46551000e-03
-8.29500000 2.48231000e-03
-8.26500000 2.49931000e-03
-8.23500000 2.51650000e-03
-8.20500000 2.53390000e-03
-8.17500000 2.55151000e-03
-8.14500000 2.56933000e-03
-8.11500000 2.58736000e-03
-8.08500000 2.60561000e-03
-8.05500000 2.62408000e-03
-8.02500000 2.64277000e-03
-7.99500000 2.66170000e-03
-7.96500000 2.68086000e-03
-7.93500000 2.70026000e-03
-7.90500000 2.71990000e-03
-7.87500000 2.73979000e-03
-7.84500000 2.75993000e-03
-7.81500000 2.78033000e-03
-7.78500000 2.80099000e-03
-7.75500000 2.82192000e-03
-7.72500000 2.84312000e-03
-7.69500000 2.86459000e-03
-7.66500000 2.88635000e-03
-7.63500000 2.90840000e-03
-7.60500000 2.93073000e-03
-7.57500000 2.95337000e-03
-7.54500000 2.97632000e-03
-7.51500000 2.99958000e-03
-7.45682000 3.04559000e-03
-7.42682000 3.06980000e-03
-7.39682000 3.09435000e-03
-7.36682000 3.11924000e-03
-7.33682000 3.14449000e-03
-7.30682000 3.17009000e-03
-7.27682000 3.19607000e-03
-7.24682000 3.22241000e-03
-7.21682000 3.24914000e-03
-7.18682000 3.27627000e-03
-7.15682000 3.30379000e-03
-7.12682000 3.33172000e-03
-7.09682000 3.36007000e-03
-7.06682000 3.38885000e-03
-7.03682000 3.41807000e-03
-7.00682000 3.44774000e-03
-6.97682000 3.47786000e-03
-6.94682000 3.50845000e-03
-6.91682000 3.53952000e-03
-6.88682000 3.57109000e-03
-6.85682000 3.60316000e-03
-6.82682000 3.63574000e-03
-6.79682000 3.66885000e-03
-6.76682000 3.70250000e-03
-6.73682000 3.73671000e-03
-6.70682000 3.77149000e-03
-6.67682000 3.80685000e-03
-6.64682000 3.84280000e-03
-6.61682000 3.87938000e-03
-6.58682000 3.91658000e-03
-6.55682000 3.95442000e-03
-6.52682000 3.99293000e-03
-6.49682000 4.03213000e-03
-6.46682000 4.07202000e-03
-6.43682000 4.11263000e-03
-6.40682000 4.15398000e-03
-6.37682000 4.19609000e-03
-6.34682000 4.23898000e-03
-6.31682000 4.28268000e-03
-6.28682000 4.32720000e-03
-6.25682000 4.37257000e-03
-6.22682000 4.41883000e-03
-6.19682000 4.46598000e-03
-6.16682000 4.51407000e-03
-6.13682000 4.56311000e-03
-6.07864000 4.66108000e-03
-6.04864000 4.71313000e-03
-6.01864000 4.76626000e-03
-5.98864000 4.82051000e-03
-5.95864000 4.87592000e-03
-5.92864000 4.93253000e-03
-5.89864000 4.99038000e-03
-5.86864000 5.04951000e-03
-5.83864000 5.10997000e-03
-5.80864000 5.17180000e-03
-5.77864000 5.23506000e-03
-5.74864000 5.29980000e-03
-5.71864000 5.36607000e-03
-5.68864000 5.43393000e-03
-5.65864000 5.50345000e-03
-5.62864000 5.57468000e-03
-5.59864000 5.64771000e-03
-5.56864000 5.72260000e-03
-5.53864000 5.79943000e-03
-5.50864000 5.87829000e-03
-5.47864000 5.95926000e-03
-5.44864000 6.04244000e-03
-5.41864000 6.12793000e-03
-5.38864000 6.21584000e-03
-5.35864000 6.30628000e-03
-5.32864000 6.39938000e-03
-5.29864000 6.49528000e-03
-5.26864000 6.59412000e-03
-5.23864000 6.69606000e-03
-5.20864000 6.80127000e-03
-5.17864000 6.90995000e-03
-5.14864000 7.02230000e-03
-5.11864000 7.13854000e-03
-5.08864000 7.25894000e-03
-5.05864000 7.38378000e-03
-5.02864000 7.51337000e-03
-4.99864000 7.64809000e-03
-4.96864000 7.78833000e-03
-4.93864000 7.93459000e-03
-4.90864000 8.08743000e-03
-4.87864000 8.24752000e-03
-4.84864000 8.41569000e-03
-4.81864000 8.59296000e-03
-4.78864000 8.78064000e-03
-4.75864000 8.98050000e-03
-4.70046000 9.41288000e-03
-4.67046000 9.66753000e-03
-4.64046000 9.95434000e-03
-4.61046000 1.02893000e-02
-4.58046000 1.07042000e-02
-4.55046000 1.12674000e-02
-4.52046000 1.21304000e-02
-4.49046000 1.34993000e-02
-4.46046000 1.46624000e-02
-4.43046000 1.42089000e-02
-4.40046000 1.36689000e-02
-4.37046000 1.36766000e-02
-4.34046000 1.40521000e-02
-4.31046000 1.47004000e-02
-4.28046000 1.56387000e-02
-4.25046000 1.69840000e-02
-4.22046000 1.90090000e-02
-4.19046000 2.23170000e-02
-4.16046000 2.82897000e-02
-4.13046000 3.97656000e-02
-4.10046000 5.67777000e-02
-4.07046000 5.76894000e-02
-4.04046000 4.20304000e-02
-4.01046000 3.17898000e-02
-3.98046000 2.71790000e-02
-3.95046000 2.53677000e-02
-3.92046000 2.49932000e-02
-3.89046000 2.54950000e-02
-3.86046000 2.66660000e-02
-3.83046000 2.84794000e-02
-3.80046000 3.10383000e-02
-3.77046000 3.45873000e-02
-3.74046000 3.95864000e-02
-3.71046000 4.68849000e-02
-3.68046000 5.81207000e-02
-3.65046000 7.66743000e-02
-3.62046000 1.10053000e-01
-3.59046000 1.75232000e-01
-3.56046000 2.97495000e-01
-3.53046000 4.04388000e-01
-3.50046000 3.11257000e-01
-3.47046000 1.87462000e-01
-3.44046000 1.21600000e-01
-3.41046000 8.95875000e-02
-3.38046000 7.35685000e-02
-3.32227000 6.28085000e-02
-3.29227000 6.32886000e-02
-3.26227000 6.76145000e-02
-3.23227000 7.75880000e-02
-3.20227000 9.61179000e-02
-3.17227000 1.13235000e-01
-3.14227000 1.09356000e-01
-3.11227000 1.08253000e-01
-3.08227000 1.20506000e-01
-3.05227000 1.34110000e-01
-3.02227000 1.44197000e-01
-2.99227000 1.68232000e-01
-2.96227000 2.16841000e-01
-2.93227000 3.09219000e-01
-2.90227000 4.88938000e-01
-2.87227000 7.79795000e-01
-2.84227000 8.91841000e-01
-2.81227000 7.47414000e-01
-2.78227000 7.31666000e-01
-2.75227000 7.07395000e-01
-2.72227000 5.66636000e-01
-2.69227000 5.13273000e-01
-2.66227000 5.73223000e-01
-2.63227000 7.54556000e-01
-2.60227000 1.13380000e+00
-2.57227000 1.79026000e+00
-2.54227000 2.34439000e+00
-2.51227000 2.15149000e+00
-2.48227000 1.69858000e+00
-2.45227000 1.10849000e+00
-2.42227000 7.67934000e-01
-2.39227000 6.58440000e-01
-2.36227000 6.09473000e-01
-2.33227000 4.79733000e-01
-2.30227000 3.85400000e-01
-2.27227000 3.56720000e-01
-2.24227000 3.81499000e-01
-2.21227000 4.68170000e-01
-2.18227000 6.49643000e-01
-2.15227000 9.89298000e-01
-2.12227000 1.55313000e+00
-2.09227000 1.89082000e+00
-2.06227000 1.86646000e+00
-2.03227000 1.49445000e+00
-2.00227000 9.11977000e-01
-1.94409000 3.86697000e-01
-1.91409000 2.84405000e-01
-1.88409000 2.24842000e-01
-1.85409000 1.88415000e-01
-1.82409000 1.65859000e-01
-1.79409000 1.52652000e-01
-1.76409000 1.46816000e-01
-1.73409000 1.48162000e-01
-1.70409000 1.57527000e-01
-1.67409000 1.74884000e-01
-1.64409000 2.08743000e-01
-1.61409000 2.81006000e-01
-1.58409000 4.13001000e-01
-1.55409000 4.98368000e-01
-1.52409000 4.02700000e-01
-1.49409000 3.21019000e-01
-1.46409000 3.12732000e-01
-1.43409000 3.70073000e-01
-1.40409000 4.89204000e-01
-1.37409000 6.68998000e-01
-1.34409000 9.29465000e-01
-1.31409000 9.83536000e-01
-1.28409000 9.01234000e-01
-1.25409000 7.68896000e-01
-1.22409000 6.77875000e-01
-1.19409000 6.45661000e-01
-1.16409000 5.89445000e-01
-1.13409000 6.30629000e-01
-1.10409000 8.26420000e-01
-1.07409000 1.10852000e+00
-1.04409000 1.25843000e+00
-1.01409000 1.62147000e+00
-0.98409300 2.49286000e+00
-0.95409300 2.94283000e+00
-0.92409300 2.01010000e+00
-0.89409300 1.16841000e+00
-0.86409300 7.35428000e-01
-0.83409300 5.16636000e-01
-0.80409300 3.99702000e-01
-0.77409300 3.35858000e-01
-0.74409300 3.04117000e-01
-0.71409300 2.96665000e-01
-0.68409300 3.14704000e-01
-0.65409300 3.68757000e-01
-0.62409300 4.58797000e-01
-0.56591200 5.40891000e-01
-0.53591200 6.88055000e-01
-0.50591200 1.03290000e+00
-0.47591200 1.47490000e+00
-0.44591200 1.35957000e+00
-0.41591200 9.98952000e-01
-0.38591200 8.72527000e-01
-0.35591200 9.79262000e-01
-0.32591200 1.36674000e+00
-0.29591200 2.22426000e+00
-0.26591200 3.36539000e+00
-0.23591200 3.05480000e+00
-0.20591200 1.90594000e+00
-0.17591200 1.26351000e+00
-0.14591200 1.05868000e+00
-0.11591200 1.12094000e+00
-0.08591150 1.07224000e+00
-0.05591150 7.68627000e-01
-0.02591150 5.52672000e-01
0.00408849 4.45669000e-01
0.03408850 3.99806000e-01
0.06408850 3.93577000e-01
0.09408850 4.06856000e-01
0.12408800 3.98227000e-01
0.15408800 3.89776000e-01
0.18408800 4.02623000e-01
0.21408800 4.34206000e-01
0.24408800 4.83551000e-01
0.27408800 5.53467000e-01
0.30408800 6.50393000e-01
0.33408800 7.85625000e-01
0.36408800 9.78503000e-01
0.39408800 1.26320000e+00
0.42408800 1.70353000e+00
0.45408800 2.42727000e+00
0.48408800 3.71089000e+00
0.51408800 6.18524000e+00
0.54408800 1.10924000e+01
0.57408800 1.78776000e+01
0.60408800 1.68020000e+01
0.63408800 9.92503000e+00
0.66408800 5.59662000e+00
0.69408800 3.43525000e+00
0.72408800 2.30428000e+00
0.75408800 1.66550000e+00
