# E(MeV)  S_NSDRNSDR(K=1) for Ni77_DDPCX
-12.96950000 -9.49235000e-03
-12.93950000 -9.22820000e-03
-12.90950000 -8.97067000e-03
-12.87950000 -8.71950000e-03
-12.84950000 -8.47444000e-03
-12.81950000 -8.23525000e-03
-12.78950000 -8.00169000e-03
-12.75950000 -7.77355000e-03
-12.72950000 -7.55063000e-03
-12.69950000 -7.33273000e-03
-12.66950000 -7.11966000e-03
-12.63950000 -6.91124000e-03
-12.60950000 -6.70731000e-03
-12.57950000 -6.50769000e-03
-12.54950000 -6.31224000e-03
-12.51950000 -6.12080000e-03
-12.48950000 -5.93324000e-03
-12.45950000 -5.74941000e-03
-12.42950000 -5.56920000e-03
-12.39950000 -5.39247000e-03
-12.36950000 -5.21911000e-03
-12.33950000 -5.04899000e-03
-12.30950000 -4.88202000e-03
-12.27950000 -4.71809000e-03
-12.24950000 -4.55710000e-03
-12.21950000 -4.39895000e-03
-12.18950000 -4.24355000e-03
-12.15950000 -4.09080000e-03
-12.12950000 -3.94064000e-03
-12.09950000 -3.79296000e-03
-12.06950000 -3.64770000e-03
-12.03950000 -3.50478000e-03
-12.00950000 -3.36413000e-03
-11.97950000 -3.22567000e-03
-11.94950000 -3.08934000e-03
-11.91950000 -2.95507000e-03
-11.88950000 -2.82279000e-03
-11.85950000 -2.69246000e-03
-11.82950000 -2.56401000e-03
-11.79950000 -2.43738000e-03
-11.76950000 -2.31252000e-03
-11.73950000 -2.18938000e-03
-11.70950000 -2.06790000e-03
-11.67950000 -1.94803000e-03
-11.64950000 -1.82974000e-03
-11.59140000 -1.60462000e-03
-11.56140000 -1.49067000e-03
-11.53140000 -1.37812000e-03
-11.50140000 -1.26692000e-03
-11.47140000 -1.15704000e-03
-11.44140000 -1.04844000e-03
-11.41140000 -9.41068000e-04
-11.38140000 -8.34903000e-04
-11.35140000 -7.29906000e-04
-11.32140000 -6.26042000e-04
-11.29140000 -5.23278000e-04
-11.26140000 -4.21583000e-04
-11.23140000 -3.20923000e-04
-11.20140000 -2.21269000e-04
-11.17140000 -1.22590000e-04
-11.14140000 -2.48575000e-05
-11.11140000 7.19578000e-05
-11.08140000 1.67884000e-04
-11.05140000 2.62947000e-04
-11.02140000 3.57176000e-04
-10.99140000 4.50595000e-04
-10.96140000 5.43231000e-04
-10.93140000 6.35109000e-04
-10.90140000 7.26254000e-04
-10.87140000 8.16690000e-04
-10.84140000 9.06441000e-04
-10.81140000 9.95531000e-04
-10.78140000 1.08398000e-03
-10.75140000 1.17182000e-03
-10.72140000 1.25907000e-03
-10.69140000 1.34574000e-03
-10.66140000 1.43187000e-03
-10.63140000 1.51747000e-03
-10.60140000 1.60257000e-03
-10.57140000 1.68719000e-03
-10.54140000 1.77135000e-03
-10.51140000 1.85507000e-03
-10.48140000 1.93838000e-03
-10.45140000 2.02129000e-03
-10.42140000 2.10383000e-03
-10.39140000 2.18601000e-03
-10.36140000 2.26787000e-03
-10.33140000 2.34942000e-03
-10.30140000 2.43069000e-03
-10.27140000 2.51169000e-03
-10.21320000 2.66812000e-03
-10.18320000 2.74848000e-03
-10.15320000 2.82867000e-03
-10.12320000 2.90872000e-03
-10.09320000 2.98864000e-03
-10.06320000 3.06846000e-03
-10.03320000 3.14822000e-03
-10.00320000 3.22793000e-03
-9.97318000 3.30762000e-03
-9.94318000 3.38732000e-03
-9.91318000 3.46706000e-03
-9.88318000 3.54687000e-03
-9.85318000 3.62679000e-03
-9.82318000 3.70684000e-03
-9.79318000 3.78705000e-03
-9.76318000 3.86747000e-03
-9.73318000 3.94813000e-03
-9.70318000 4.02908000e-03
-9.67318000 4.11034000e-03
-9.64318000 4.19196000e-03
-9.61318000 4.27399000e-03
-9.58318000 4.35648000e-03
-9.55318000 4.43947000e-03
-9.52318000 4.52302000e-03
-9.49318000 4.60719000e-03
-9.46318000 4.69204000e-03
-9.43318000 4.77762000e-03
-9.40318000 4.86402000e-03
-9.37318000 4.95130000e-03
-9.34318000 5.03954000e-03
-9.31318000 5.12883000e-03
-9.28318000 5.21925000e-03
-9.25318000 5.31091000e-03
-9.22318000 5.40392000e-03
-9.19318000 5.49839000e-03
-9.16318000 5.59444000e-03
-9.13318000 5.69221000e-03
-9.10318000 5.79185000e-03
-9.07318000 5.89353000e-03
-9.04318000 5.99742000e-03
-9.01318000 6.10371000e-03
-8.98318000 6.21264000e-03
-8.95318000 6.32443000e-03
-8.92318000 6.43935000e-03
-8.89318000 6.55769000e-03
-8.83500000 6.79826000e-03
-8.80500000 6.92874000e-03
-8.77500000 7.06421000e-03
-8.74500000 7.20519000e-03
-8.71500000 7.35228000e-03
-8.68500000 7.50616000e-03
-8.65500000 7.66762000e-03
-8.62500000 7.83758000e-03
-8.59500000 8.01709000e-03
-8.56500000 8.20740000e-03
-8.53500000 8.40998000e-03
-8.50500000 8.62657000e-03
-8.47500000 8.85930000e-03
-8.44500000 9.11073000e-03
-8.41500000 9.38407000e-03
-8.38500000 9.68334000e-03
-8.35500000 1.00138000e-02
-8.32500000 1.03824000e-02
-8.29500000 1.07989000e-02
-8.26500000 1.12779000e-02
-8.23500000 1.18425000e-02
-8.20500000 1.25341000e-02
-8.17500000 1.34346000e-02
-8.14500000 1.47061000e-02
-8.11500000 1.64607000e-02
-8.08500000 1.77675000e-02
-8.05500000 1.82451000e-02
-8.02500000 1.92769000e-02
-7.99500000 2.11687000e-02
-7.96500000 2.40717000e-02
-7.93500000 2.85037000e-02
-7.90500000 3.56783000e-02
-7.87500000 4.79498000e-02
-7.84500000 6.53812000e-02
-7.81500000 7.56771000e-02
-7.78500000 8.65564000e-02
-7.75500000 1.19647000e-01
-7.72500000 1.94593000e-01
-7.69500000 3.15275000e-01
-7.66500000 3.30660000e-01
-7.63500000 2.10780000e-01
-7.60500000 1.25821000e-01
-7.57500000 8.36682000e-02
-7.54500000 6.25417000e-02
-7.51500000 5.15055000e-02
-7.45682000 4.34697000e-02
-7.42682000 4.31026000e-02
-7.39682000 4.45621000e-02
-7.36682000 4.80000000e-02
-7.33682000 5.37407000e-02
-7.30682000 6.22231000e-02
-7.27682000 7.50585000e-02
-7.24682000 9.55334000e-02
-7.21682000 1.29879000e-01
-7.18682000 1.91868000e-01
-7.15682000 3.10818000e-01
-7.12682000 5.07525000e-01
-7.09682000 6.03073000e-01
-7.06682000 5.26908000e-01
-7.03682000 5.75557000e-01
-7.00682000 8.08547000e-01
-6.97682000 8.75906000e-01
-6.94682000 5.70474000e-01
-6.91682000 3.28582000e-01
-6.88682000 2.04118000e-01
-6.85682000 1.39083000e-01
-6.82682000 1.02304000e-01
-6.79682000 8.00867000e-02
-6.76682000 6.62521000e-02
-6.73682000 5.79407000e-02
-6.70682000 5.28474000e-02
-6.67682000 4.80022000e-02
-6.64682000 4.48578000e-02
-6.61682000 4.48125000e-02
-6.58682000 4.87200000e-02
-6.55682000 5.92547000e-02
-6.52682000 8.30127000e-02
-6.49682000 1.27799000e-01
-6.46682000 1.55341000e-01
-6.43682000 1.12945000e-01
-6.40682000 7.07034000e-02
-6.37682000 4.86367000e-02
-6.34682000 3.76268000e-02
-6.31682000 3.17924000e-02
-6.28682000 2.73756000e-02
-6.25682000 2.38083000e-02
-6.22682000 2.13907000e-02
-6.19682000 1.97250000e-02
-6.16682000 1.85112000e-02
-6.13682000 1.75869000e-02
-6.07864000 1.63088000e-02
-6.04864000 1.58261000e-02
-6.01864000 1.54271000e-02
-5.98864000 1.50945000e-02
-5.95864000 1.48159000e-02
-5.92864000 1.45820000e-02
-5.89864000 1.43859000e-02
-5.86864000 1.42224000e-02
-5.83864000 1.40876000e-02
-5.80864000 1.39787000e-02
-5.77864000 1.38935000e-02
-5.74864000 1.38307000e-02
-5.71864000 1.37896000e-02
-5.68864000 1.37703000e-02
-5.65864000 1.37736000e-02
-5.62864000 1.38010000e-02
-5.59864000 1.38553000e-02
-5.56864000 1.39407000e-02
-5.53864000 1.40634000e-02
-5.50864000 1.42326000e-02
-5.47864000 1.44618000e-02
-5.44864000 1.47712000e-02
-5.41864000 1.51923000e-02
-5.38864000 1.57748000e-02
-5.35864000 1.66016000e-02
-5.32864000 1.78173000e-02
-5.29864000 1.96901000e-02
-5.26864000 2.27543000e-02
-5.23864000 2.81608000e-02
-5.20864000 3.85331000e-02
-5.17864000 5.91653000e-02
-5.14864000 8.90728000e-02
-5.11864000 8.72318000e-02
-5.08864000 5.71993000e-02
-5.05864000 3.75912000e-02
-5.02864000 2.77970000e-02
-4.99864000 2.27198000e-02
-4.96864000 1.98777000e-02
-4.93864000 1.80634000e-02
-4.90864000 1.68213000e-02
-4.87864000 1.59850000e-02
-4.84864000 1.54069000e-02
-4.81864000 1.49940000e-02
-4.78864000 1.46916000e-02
-4.75864000 1.44663000e-02
-4.70046000 1.41747000e-02
-4.67046000 1.40755000e-02
-4.64046000 1.40009000e-02
-4.61046000 1.39455000e-02
-4.58046000 1.39056000e-02
-4.55046000 1.38781000e-02
-4.52046000 1.38608000e-02
-4.49046000 1.38521000e-02
-4.46046000 1.38505000e-02
-4.43046000 1.38549000e-02
-4.40046000 1.38646000e-02
-4.37046000 1.38787000e-02
-4.34046000 1.38967000e-02
-4.31046000 1.39181000e-02
-4.28046000 1.39425000e-02
-4.25046000 1.39695000e-02
-4.22046000 1.39990000e-02
-4.19046000 1.40306000e-02
-4.16046000 1.40641000e-02
-4.13046000 1.40994000e-02
-4.10046000 1.41363000e-02
-4.07046000 1.41747000e-02
-4.04046000 1.42144000e-02
-4.01046000 1.42554000e-02
-3.98046000 1.42976000e-02
-3.95046000 1.43408000e-02
-3.92046000 1.43851000e-02
-3.89046000 1.44303000e-02
-3.86046000 1.44764000e-02
-3.83046000 1.45233000e-02
-3.80046000 1.45711000e-02
-3.77046000 1.46196000e-02
-3.74046000 1.46689000e-02
-3.71046000 1.47188000e-02
-3.68046000 1.47695000e-02
-3.65046000 1.48207000e-02
-3.62046000 1.48726000e-02
-3.59046000 1.49251000e-02
-3.56046000 1.49781000e-02
-3.53046000 1.50317000e-02
-3.50046000 1.50859000e-02
-3.47046000 1.51405000e-02
-3.44046000 1.51957000e-02
-3.41046000 1.52514000e-02
-3.38046000 1.53076000e-02
-3.32227000 1.54178000e-02
-3.29227000 1.54754000e-02
-3.26227000 1.55333000e-02
-3.23227000 1.55918000e-02
-3.20227000 1.56506000e-02
-3.17227000 1.57099000e-02
-3.14227000 1.57696000e-02
-3.11227000 1.58297000e-02
-3.08227000 1.58903000e-02
-3.05227000 1.59512000e-02
-3.02227000 1.60125000e-02
-2.99227000 1.60743000e-02
-2.96227000 1.61364000e-02
-2.93227000 1.61990000e-02
-2.90227000 1.62619000e-02
-2.87227000 1.63252000e-02
-2.84227000 1.63889000e-02
-2.81227000 1.64530000e-02
-2.78227000 1.65174000e-02
-2.75227000 1.65823000e-02
-2.72227000 1.66475000e-02
-2.69227000 1.67131000e-02
-2.66227000 1.67790000e-02
-2.63227000 1.68454000e-02
-2.60227000 1.69121000e-02
-2.57227000 1.69792000e-02
-2.54227000 1.70467000e-02
-2.51227000 1.71146000e-02
-2.48227000 1.71828000e-02
-2.45227000 1.72514000e-02
-2.42227000 1.73204000e-02
-2.39227000 1.73897000e-02
-2.36227000 1.74595000e-02
-2.33227000 1.75296000e-02
-2.30227000 1.76001000e-02
-2.27227000 1.76709000e-02
-2.24227000 1.77422000e-02
-2.21227000 1.78138000e-02
-2.18227000 1.78858000e-02
-2.15227000 1.79583000e-02
-2.12227000 1.80310000e-02
-2.09227000 1.81042000e-02
-2.06227000 1.81778000e-02
-2.03227000 1.82518000e-02
-2.00227000 1.83261000e-02
-1.94409000 1.84714000e-02
-1.91409000 1.85470000e-02
-1.88409000 1.86229000e-02
-1.85409000 1.86992000e-02
-1.82409000 1.87759000e-02
-1.79409000 1.88531000e-02
-1.76409000 1.89306000e-02
-1.73409000 1.90086000e-02
-1.70409000 1.90870000e-02
-1.67409000 1.91658000e-02
-1.64409000 1.92450000e-02
-1.61409000 1.93247000e-02
-1.58409000 1.94047000e-02
-1.55409000 1.94853000e-02
-1.52409000 1.95662000e-02
-1.49409000 1.96476000e-02
-1.46409000 1.97294000e-02
-1.43409000 1.98117000e-02
-1.40409000 1.98944000e-02
-1.37409000 1.99775000e-02
-1.34409000 2.00611000e-02
-1.31409000 2.01452000e-02
-1.28409000 2.02297000e-02
-1.25409000 2.03147000e-02
-1.22409000 2.04002000e-02
-1.19409000 2.04862000e-02
-1.16409000 2.05726000e-02
-1.13409000 2.06595000e-02
-1.10409000 2.07469000e-02
-1.07409000 2.08348000e-02
-1.04409000 2.09231000e-02
-1.01409000 2.10120000e-02
-0.98409300 2.11014000e-02
-0.95409300 2.11913000e-02
-0.92409300 2.12817000e-02
-0.89409300 2.13727000e-02
-0.86409300 2.14641000e-02
-0.83409300 2.15561000e-02
-0.80409300 2.16486000e-02
-0.77409300 2.17417000e-02
-0.74409300 2.18353000e-02
-0.71409300 2.19295000e-02
-0.68409300 2.20242000e-02
-0.65409300 2.21195000e-02
-0.62409300 2.22154000e-02
-0.56591200 2.24030000e-02
-0.53591200 2.25007000e-02
-0.50591200 2.25989000e-02
-0.47591200 2.26977000e-02
-0.44591200 2.27972000e-02
-0.41591200 2.28972000e-02
-0.38591200 2.29980000e-02
-0.35591200 2.30993000e-02
-0.32591200 2.32014000e-02
-0.29591200 2.33041000e-02
-0.26591200 2.34075000e-02
-0.23591200 2.35116000e-02
-0.20591200 2.36163000e-02
-0.17591200 2.37219000e-02
-0.14591200 2.38281000e-02
-0.11591200 2.39351000e-02
-0.08591150 2.40429000e-02
-0.05591150 2.41514000e-02
-0.02591150 2.42608000e-02
0.00408849 2.43710000e-02
0.03408850 2.44820000e-02
0.06408850 2.45939000e-02
0.09408850 2.47068000e-02
0.12408800 2.48205000e-02
0.15408800 2.49353000e-02
0.18408800 2.50510000e-02
0.21408800 2.51678000e-02
0.24408800 2.52857000e-02
0.27408800 2.54048000e-02
0.30408800 2.55251000e-02
0.33408800 2.56468000e-02
0.36408800 2.57698000e-02
0.39408800 2.58944000e-02
0.42408800 2.60206000e-02
0.45408800 2.61486000e-02
0.48408800 2.62786000e-02
0.51408800 2.64108000e-02
0.54408800 2.65455000e-02
0.57408800 2.66830000e-02
0.60408800 2.68239000e-02
0.63408800 2.69686000e-02
0.66408800 2.71179000e-02
0.69408800 2.72728000e-02
0.72408800 2.74346000e-02
0.75408800 2.76051000e-02
