# E(MeV)  S_NSDRNSDR(K=0) for Ni77_DDPCX
-12.96950000 -9.32805000e-04
-12.93950000 -8.70701000e-04
-12.90950000 -8.08939000e-04
-12.87950000 -7.47512000e-04
-12.84950000 -6.86417000e-04
-12.81950000 -6.25650000e-04
-12.78950000 -5.65205000e-04
-12.75950000 -5.05079000e-04
-12.72950000 -4.45267000e-04
-12.69950000 -3.85765000e-04
-12.66950000 -3.26569000e-04
-12.63950000 -2.67675000e-04
-12.60950000 -2.09078000e-04
-12.57950000 -1.50775000e-04
-12.54950000 -9.27614000e-05
-12.51950000 -3.50335000e-05
-12.48950000 2.24125000e-05
-12.45950000 7.95806000e-05
-12.42950000 1.36474000e-04
-12.39950000 1.93098000e-04
-12.36950000 2.49454000e-04
-12.33950000 3.05548000e-04
-12.30950000 3.61381000e-04
-12.27950000 4.16959000e-04
-12.24950000 4.72284000e-04
-12.21950000 5.27360000e-04
-12.18950000 5.82190000e-04
-12.15950000 6.36778000e-04
-12.12950000 6.91127000e-04
-12.09950000 7.45241000e-04
-12.06950000 7.99122000e-04
-12.03950000 8.52773000e-04
-12.00950000 9.06199000e-04
-11.97950000 9.59402000e-04
-11.94950000 1.01239000e-03
-11.91950000 1.06515000e-03
-11.88950000 1.11770000e-03
-11.85950000 1.17005000e-03
-11.82950000 1.22218000e-03
-11.79950000 1.27411000e-03
-11.76950000 1.32584000e-03
-11.73950000 1.37737000e-03
-11.70950000 1.42870000e-03
-11.67950000 1.47984000e-03
-11.64950000 1.53079000e-03
-11.59140000 1.62907000e-03
-11.56140000 1.67947000e-03
-11.53140000 1.72970000e-03
-11.50140000 1.77974000e-03
-11.47140000 1.82962000e-03
-11.44140000 1.87932000e-03
-11.41140000 1.92885000e-03
-11.38140000 1.97822000e-03
-11.35140000 2.02742000e-03
-11.32140000 2.07645000e-03
-11.29140000 2.12533000e-03
-11.26140000 2.17406000e-03
-11.23140000 2.22262000e-03
-11.20140000 2.27104000e-03
-11.17140000 2.31930000e-03
-11.14140000 2.36742000e-03
-11.11140000 2.41540000e-03
-11.08140000 2.46323000e-03
-11.05140000 2.51091000e-03
-11.02140000 2.55847000e-03
-10.99140000 2.60588000e-03
-10.96140000 2.65316000e-03
-10.93140000 2.70031000e-03
-10.90140000 2.74733000e-03
-10.87140000 2.79423000e-03
-10.84140000 2.84099000e-03
-10.81140000 2.88764000e-03
-10.78140000 2.93416000e-03
-10.75140000 2.98057000e-03
-10.72140000 3.02686000e-03
-10.69140000 3.07303000e-03
-10.66140000 3.11909000e-03
-10.63140000 3.16504000e-03
-10.60140000 3.21089000e-03
-10.57140000 3.25662000e-03
-10.54140000 3.30226000e-03
-10.51140000 3.34778000e-03
-10.48140000 3.39321000e-03
-10.45140000 3.43854000e-03
-10.42140000 3.48378000e-03
-10.39140000 3.52892000e-03
-10.36140000 3.57397000e-03
-10.33140000 3.61892000e-03
-10.30140000 3.66379000e-03
-10.27140000 3.70857000e-03
-10.21320000 3.79518000e-03
-10.18320000 3.83972000e-03
-10.15320000 3.88418000e-03
-10.12320000 3.92856000e-03
-10.09320000 3.97286000e-03
-10.06320000 4.01709000e-03
-10.03320000 4.06125000e-03
-10.00320000 4.10534000e-03
-9.97318000 4.14937000e-03
-9.94318000 4.19332000e-03
-9.91318000 4.23721000e-03
-9.88318000 4.28104000e-03
-9.85318000 4.32481000e-03
-9.82318000 4.36852000e-03
-9.79318000 4.41218000e-03
-9.76318000 4.45578000e-03
-9.73318000 4.49933000e-03
-9.70318000 4.54282000e-03
-9.67318000 4.58627000e-03
-9.64318000 4.62967000e-03
-9.61318000 4.67303000e-03
-9.58318000 4.71634000e-03
-9.55318000 4.75962000e-03
-9.52318000 4.80285000e-03
-9.49318000 4.84605000e-03
-9.46318000 4.88921000e-03
-9.43318000 4.93234000e-03
-9.40318000 4.97545000e-03
-9.37318000 5.01852000e-03
-9.34318000 5.06157000e-03
-9.31318000 5.10460000e-03
-9.28318000 5.14760000e-03
-9.25318000 5.19059000e-03
-9.22318000 5.23356000e-03
-9.19318000 5.27652000e-03
-9.16318000 5.31947000e-03
-9.13318000 5.36241000e-03
-9.10318000 5.40535000e-03
-9.07318000 5.44828000e-03
-9.04318000 5.49122000e-03
-9.01318000 5.53417000e-03
-8.98318000 5.57712000e-03
-8.95318000 5.62009000e-03
-8.92318000 5.66307000e-03
-8.89318000 5.70607000e-03
-8.83500000 5.78955000e-03
-8.80500000 5.83264000e-03
-8.77500000 5.87578000e-03
-8.74500000 5.91896000e-03
-8.71500000 5.96219000e-03
-8.68500000 6.00548000e-03
-8.65500000 6.04885000e-03
-8.62500000 6.09228000e-03
-8.59500000 6.13581000e-03
-8.56500000 6.17943000e-03
-8.53500000 6.22316000e-03
-8.50500000 6.26701000e-03
-8.47500000 6.31099000e-03
-8.44500000 6.35514000e-03
-8.41500000 6.39945000e-03
-8.38500000 6.44396000e-03
-8.35500000 6.48870000e-03
-8.32500000 6.53369000e-03
-8.29500000 6.57898000e-03
-8.26500000 6.62461000e-03
-8.23500000 6.67063000e-03
-8.20500000 6.71713000e-03
-8.17500000 6.76419000e-03
-8.14500000 6.81194000e-03
-8.11500000 6.86054000e-03
-8.08500000 6.91020000e-03
-8.05500000 6.96125000e-03
-8.02500000 7.01417000e-03
-7.99500000 7.06968000e-03
-7.96500000 7.12900000e-03
-7.93500000 7.19424000e-03
-7.90500000 7.26940000e-03
-7.87500000 7.36272000e-03
-7.84500000 7.49247000e-03
-7.81500000 7.69844000e-03
-7.78500000 8.01682000e-03
-7.75500000 8.19932000e-03
-7.72500000 8.03043000e-03
-7.69500000 7.90192000e-03
-7.66500000 7.89012000e-03
-7.63500000 7.95405000e-03
-7.60500000 8.08282000e-03
-7.57500000 8.30032000e-03
-7.54500000 8.68258000e-03
-7.51500000 9.40105000e-03
-7.45682000 1.09217000e-02
-7.42682000 9.98109000e-03
-7.39682000 9.24693000e-03
-7.36682000 8.93309000e-03
-7.33682000 8.84195000e-03
-7.30682000 8.87104000e-03
-7.27682000 8.98267000e-03
-7.24682000 9.17099000e-03
-7.21682000 9.45179000e-03
-7.18682000 9.86576000e-03
-7.15682000 1.04960000e-02
-7.12682000 1.15134000e-02
-7.09682000 1.32901000e-02
-7.06682000 1.66767000e-02
-7.03682000 2.33292000e-02
-7.00682000 3.23276000e-02
-6.97682000 3.06900000e-02
-6.94682000 2.18223000e-02
-6.91682000 1.64974000e-02
-6.88682000 1.42100000e-02
-6.85682000 1.37367000e-02
-6.82682000 1.46774000e-02
-6.79682000 1.52723000e-02
-6.76682000 1.34048000e-02
-6.73682000 1.16523000e-02
-6.70682000 1.07188000e-02
-6.67682000 1.02325000e-02
-6.64682000 9.96602000e-03
-6.61682000 9.81740000e-03
-6.58682000 9.73983000e-03
-6.55682000 9.71115000e-03
-6.52682000 9.72196000e-03
-6.49682000 9.77158000e-03
-6.46682000 9.86841000e-03
-6.43682000 1.00352000e-02
-6.40682000 1.03242000e-02
-6.37682000 1.08556000e-02
-6.34682000 1.19007000e-02
-6.31682000 1.37813000e-02
-6.28682000 1.49905000e-02
-6.25682000 1.33683000e-02
-6.22682000 1.17207000e-02
-6.19682000 1.08774000e-02
-6.16682000 1.04666000e-02
-6.13682000 1.02574000e-02
-6.07864000 1.00950000e-02
-6.04864000 1.00695000e-02
-6.01864000 1.00639000e-02
-5.98864000 1.00713000e-02
-5.95864000 1.00875000e-02
-5.92864000 1.01101000e-02
-5.89864000 1.01371000e-02
-5.86864000 1.01677000e-02
-5.83864000 1.02009000e-02
-5.80864000 1.02362000e-02
-5.77864000 1.02733000e-02
-5.74864000 1.03117000e-02
-5.71864000 1.03513000e-02
-5.68864000 1.03920000e-02
-5.65864000 1.04335000e-02
-5.62864000 1.04758000e-02
-5.59864000 1.05189000e-02
-5.56864000 1.05625000e-02
-5.53864000 1.06068000e-02
-5.50864000 1.06518000e-02
-5.47864000 1.06973000e-02
-5.44864000 1.07434000e-02
-5.41864000 1.07901000e-02
-5.38864000 1.08376000e-02
-5.35864000 1.08858000e-02
-5.32864000 1.09350000e-02
-5.29864000 1.09854000e-02
-5.26864000 1.10371000e-02
-5.23864000 1.10908000e-02
-5.20864000 1.11472000e-02
-5.17864000 1.12074000e-02
-5.14864000 1.12736000e-02
-5.11864000 1.13494000e-02
-5.08864000 1.14420000e-02
-5.05864000 1.15660000e-02
-5.02864000 1.17545000e-02
-4.99864000 1.20814000e-02
-4.96864000 1.26441000e-02
-4.93864000 1.30688000e-02
-4.90864000 1.26788000e-02
-4.87864000 1.22371000e-02
-4.84864000 1.20270000e-02
-4.81864000 1.19450000e-02
-4.78864000 1.19225000e-02
-4.75864000 1.19294000e-02
-4.70046000 1.19816000e-02
-4.67046000 1.20187000e-02
-4.64046000 1.20595000e-02
-4.61046000 1.21029000e-02
-4.58046000 1.21481000e-02
-4.55046000 1.21946000e-02
-4.52046000 1.22422000e-02
-4.49046000 1.22907000e-02
-4.46046000 1.23398000e-02
-4.43046000 1.23894000e-02
-4.40046000 1.24395000e-02
-4.37046000 1.24901000e-02
-4.34046000 1.25410000e-02
-4.31046000 1.25922000e-02
-4.28046000 1.26438000e-02
-4.25046000 1.26956000e-02
-4.22046000 1.27478000e-02
-4.19046000 1.28001000e-02
-4.16046000 1.28528000e-02
-4.13046000 1.29056000e-02
-4.10046000 1.29587000e-02
-4.07046000 1.30120000e-02
-4.04046000 1.30656000e-02
-4.01046000 1.31193000e-02
-3.98046000 1.31733000e-02
-3.95046000 1.32275000e-02
-3.92046000 1.32819000e-02
-3.89046000 1.33365000e-02
-3.86046000 1.33913000e-02
-3.83046000 1.34464000e-02
-3.80046000 1.35016000e-02
-3.77046000 1.35571000e-02
-3.74046000 1.36127000e-02
-3.71046000 1.36686000e-02
-3.68046000 1.37247000e-02
-3.65046000 1.37810000e-02
-3.62046000 1.38375000e-02
-3.59046000 1.38943000e-02
-3.56046000 1.39512000e-02
-3.53046000 1.40084000e-02
-3.50046000 1.40657000e-02
-3.47046000 1.41233000e-02
-3.44046000 1.41811000e-02
-3.41046000 1.42392000e-02
-3.38046000 1.42974000e-02
-3.32227000 1.44110000e-02
-3.29227000 1.44700000e-02
-3.26227000 1.45291000e-02
-3.23227000 1.45885000e-02
-3.20227000 1.46481000e-02
-3.17227000 1.47079000e-02
-3.14227000 1.47680000e-02
-3.11227000 1.48283000e-02
-3.08227000 1.48888000e-02
-3.05227000 1.49496000e-02
-3.02227000 1.50106000e-02
-2.99227000 1.50719000e-02
-2.96227000 1.51334000e-02
-2.93227000 1.51952000e-02
-2.90227000 1.52572000e-02
-2.87227000 1.53194000e-02
-2.84227000 1.53819000e-02
-2.81227000 1.54447000e-02
-2.78227000 1.55077000e-02
-2.75227000 1.55710000e-02
-2.72227000 1.56346000e-02
-2.69227000 1.56984000e-02
-2.66227000 1.57624000e-02
-2.63227000 1.58268000e-02
-2.60227000 1.58914000e-02
-2.57227000 1.59562000e-02
-2.54227000 1.60214000e-02
-2.51227000 1.60868000e-02
-2.48227000 1.61525000e-02
-2.45227000 1.62185000e-02
-2.42227000 1.62847000e-02
-2.39227000 1.63513000e-02
-2.36227000 1.64181000e-02
-2.33227000 1.64852000e-02
-2.30227000 1.65527000e-02
-2.27227000 1.66204000e-02
-2.24227000 1.66884000e-02
-2.21227000 1.67567000e-02
-2.18227000 1.68253000e-02
-2.15227000 1.68942000e-02
-2.12227000 1.69634000e-02
-2.09227000 1.70329000e-02
-2.06227000 1.71027000e-02
-2.03227000 1.71729000e-02
-2.00227000 1.72434000e-02
-1.94409000 1.73809000e-02
-1.91409000 1.74523000e-02
-1.88409000 1.75241000e-02
-1.85409000 1.75961000e-02
-1.82409000 1.76685000e-02
-1.79409000 1.77413000e-02
-1.76409000 1.78143000e-02
-1.73409000 1.78877000e-02
-1.70409000 1.79615000e-02
-1.67409000 1.80356000e-02
-1.64409000 1.81101000e-02
-1.61409000 1.81849000e-02
-1.58409000 1.82600000e-02
-1.55409000 1.83355000e-02
-1.52409000 1.84114000e-02
-1.49409000 1.84877000e-02
-1.46409000 1.85643000e-02
-1.43409000 1.86413000e-02
-1.40409000 1.87186000e-02
-1.37409000 1.87964000e-02
-1.34409000 1.88745000e-02
-1.31409000 1.89530000e-02
-1.28409000 1.90319000e-02
-1.25409000 1.91112000e-02
-1.22409000 1.91909000e-02
-1.19409000 1.92710000e-02
-1.16409000 1.93515000e-02
-1.13409000 1.94323000e-02
-1.10409000 1.95136000e-02
-1.07409000 1.95954000e-02
-1.04409000 1.96775000e-02
-1.01409000 1.97601000e-02
-0.98409300 1.98430000e-02
-0.95409300 1.99264000e-02
-0.92409300 2.00103000e-02
-0.89409300 2.00946000e-02
-0.86409300 2.01793000e-02
-0.83409300 2.02645000e-02
-0.80409300 2.03501000e-02
-0.77409300 2.04362000e-02
-0.74409300 2.05227000e-02
-0.71409300 2.06097000e-02
-0.68409300 2.06972000e-02
-0.65409300 2.07851000e-02
-0.62409300 2.08735000e-02
-0.56591200 2.10464000e-02
-0.53591200 2.11362000e-02
-0.50591200 2.12266000e-02
-0.47591200 2.13175000e-02
-0.44591200 2.14088000e-02
-0.41591200 2.15007000e-02
-0.38591200 2.15931000e-02
-0.35591200 2.16861000e-02
-0.32591200 2.17796000e-02
-0.29591200 2.18736000e-02
-0.26591200 2.19682000e-02
-0.23591200 2.20633000e-02
-0.20591200 2.21591000e-02
-0.17591200 2.22553000e-02
-0.14591200 2.23522000e-02
-0.11591200 2.24497000e-02
-0.08591150 2.25478000e-02
-0.05591150 2.26465000e-02
-0.02591150 2.27458000e-02
0.00408849 2.28457000e-02
0.03408850 2.29464000e-02
0.06408850 2.30477000e-02
0.09408850 2.31496000e-02
0.12408800 2.32523000e-02
0.15408800 2.33558000e-02
0.18408800 2.34600000e-02
0.21408800 2.35649000e-02
0.24408800 2.36707000e-02
0.27408800 2.37773000e-02
0.30408800 2.38848000e-02
0.33408800 2.39933000e-02
0.36408800 2.41027000e-02
0.39408800 2.42133000e-02
0.42408800 2.43249000e-02
0.45408800 2.44378000e-02
0.48408800 2.45521000e-02
0.51408800 2.46680000e-02
0.54408800 2.47855000e-02
0.57408800 2.49050000e-02
0.60408800 2.50268000e-02
0.63408800 2.51514000e-02
0.66408800 2.52792000e-02
0.69408800 2.54112000e-02
0.72408800 2.55483000e-02
0.75408800 2.56923000e-02
