# E(MeV)  S_GAMTGAMT(Total=K0+2*K1) for Ni77_DDPCX
-12.96950000 3.32424000e-03
-12.93950000 3.33770000e-03
-12.90950000 3.35127000e-03
-12.87950000 3.36491000e-03
-12.84950000 3.37866000e-03
-12.81950000 3.39248000e-03
-12.78950000 3.40641000e-03
-12.75950000 3.42041000e-03
-12.72950000 3.43452000e-03
-12.69950000 3.44872000e-03
-12.66950000 3.46301000e-03
-12.63950000 3.47740000e-03
-12.60950000 3.49187000e-03
-12.57950000 3.50646000e-03
-12.54950000 3.52113000e-03
-12.51950000 3.53590000e-03
-12.48950000 3.55079000e-03
-12.45950000 3.56574000e-03
-12.42950000 3.58083000e-03
-12.39950000 3.59600000e-03
-12.36950000 3.61129000e-03
-12.33950000 3.62666000e-03
-12.30950000 3.64217000e-03
-12.27950000 3.65777000e-03
-12.24950000 3.67347000e-03
-12.21950000 3.68928000e-03
-12.18950000 3.70521000e-03
-12.15950000 3.72123000e-03
-12.12950000 3.73740000e-03
-12.09950000 3.75366000e-03
-12.06950000 3.77003000e-03
-12.03950000 3.78651000e-03
-12.00950000 3.80312000e-03
-11.97950000 3.81985000e-03
-11.94950000 3.83668000e-03
-11.91950000 3.85365000e-03
-11.88950000 3.87074000e-03
-11.85950000 3.88795000e-03
-11.82950000 3.90528000e-03
-11.79950000 3.92273000e-03
-11.76950000 3.94031000e-03
-11.73950000 3.95802000e-03
-11.70950000 3.97586000e-03
-11.67950000 3.99384000e-03
-11.64950000 4.01193000e-03
-11.59140000 4.04742000e-03
-11.56140000 4.06591000e-03
-11.53140000 4.08455000e-03
-11.50140000 4.10332000e-03
-11.47140000 4.12225000e-03
-11.44140000 4.14131000e-03
-11.41140000 4.16049000e-03
-11.38140000 4.17984000e-03
-11.35140000 4.19933000e-03
-11.32140000 4.21897000e-03
-11.29140000 4.23875000e-03
-11.26140000 4.25870000e-03
-11.23140000 4.27880000e-03
-11.20140000 4.29905000e-03
-11.17140000 4.31945000e-03
-11.14140000 4.34001000e-03
-11.11140000 4.36073000e-03
-11.08140000 4.38161000e-03
-11.05140000 4.40267000e-03
-11.02140000 4.42387000e-03
-10.99140000 4.44526000e-03
-10.96140000 4.46681000e-03
-10.93140000 4.48853000e-03
-10.90140000 4.51044000e-03
-10.87140000 4.53251000e-03
-10.84140000 4.55476000e-03
-10.81140000 4.57718000e-03
-10.78140000 4.59979000e-03
-10.75140000 4.62258000e-03
-10.72140000 4.64556000e-03
-10.69140000 4.66871000e-03
-10.66140000 4.69208000e-03
-10.63140000 4.71562000e-03
-10.60140000 4.73936000e-03
-10.57140000 4.76330000e-03
-10.54140000 4.78745000e-03
-10.51140000 4.81179000e-03
-10.48140000 4.83633000e-03
-10.45140000 4.86108000e-03
-10.42140000 4.88604000e-03
-10.39140000 4.91121000e-03
-10.36140000 4.93661000e-03
-10.33140000 4.96220000e-03
-10.30140000 4.98803000e-03
-10.27140000 5.01408000e-03
-10.21320000 5.06523000e-03
-10.18320000 5.09195000e-03
-10.15320000 5.11890000e-03
-10.12320000 5.14610000e-03
-10.09320000 5.17351000e-03
-10.06320000 5.20118000e-03
-10.03320000 5.22909000e-03
-10.00320000 5.25727000e-03
-9.97318000 5.28568000e-03
-9.94318000 5.31434000e-03
-9.91318000 5.34327000e-03
-9.88318000 5.37246000e-03
-9.85318000 5.40193000e-03
-9.82318000 5.43166000e-03
-9.79318000 5.46166000e-03
-9.76318000 5.49195000e-03
-9.73318000 5.52251000e-03
-9.70318000 5.55335000e-03
-9.67318000 5.58448000e-03
-9.64318000 5.61589000e-03
-9.61318000 5.64761000e-03
-9.58318000 5.67964000e-03
-9.55318000 5.71196000e-03
-9.52318000 5.74459000e-03
-9.49318000 5.77754000e-03
-9.46318000 5.81079000e-03
-9.43318000 5.84437000e-03
-9.40318000 5.87828000e-03
-9.37318000 5.91252000e-03
-9.34318000 5.94708000e-03
-9.31318000 5.98200000e-03
-9.28318000 6.01726000e-03
-9.25318000 6.05289000e-03
-9.22318000 6.08884000e-03
-9.19318000 6.12516000e-03
-9.16318000 6.16187000e-03
-9.13318000 6.19892000e-03
-9.10318000 6.23637000e-03
-9.07318000 6.27419000e-03
-9.04318000 6.31240000e-03
-9.01318000 6.35100000e-03
-8.98318000 6.39001000e-03
-8.95318000 6.42942000e-03
-8.92318000 6.46924000e-03
-8.89318000 6.50948000e-03
-8.83500000 6.58874000e-03
-8.80500000 6.63026000e-03
-8.77500000 6.67221000e-03
-8.74500000 6.71461000e-03
-8.71500000 6.75748000e-03
-8.68500000 6.80083000e-03
-8.65500000 6.84463000e-03
-8.62500000 6.88891000e-03
-8.59500000 6.93370000e-03
-8.56500000 6.97897000e-03
-8.53500000 7.02476000e-03
-8.50500000 7.07105000e-03
-8.47500000 7.11788000e-03
-8.44500000 7.16523000e-03
-8.41500000 7.21311000e-03
-8.38500000 7.26157000e-03
-8.35500000 7.31056000e-03
-8.32500000 7.36014000e-03
-8.29500000 7.41029000e-03
-8.26500000 7.46103000e-03
-8.23500000 7.51236000e-03
-8.20500000 7.56431000e-03
-8.17500000 7.61688000e-03
-8.14500000 7.67009000e-03
-8.11500000 7.72393000e-03
-8.08500000 7.77843000e-03
-8.05500000 7.83359000e-03
-8.02500000 7.88942000e-03
-7.99500000 7.94595000e-03
-7.96500000 8.00319000e-03
-7.93500000 8.06114000e-03
-7.90500000 8.11982000e-03
-7.87500000 8.17925000e-03
-7.84500000 8.23943000e-03
-7.81500000 8.30039000e-03
-7.78500000 8.36214000e-03
-7.75500000 8.42469000e-03
-7.72500000 8.48806000e-03
-7.69500000 8.55225000e-03
-7.66500000 8.61731000e-03
-7.63500000 8.68324000e-03
-7.60500000 8.75002000e-03
-7.57500000 8.81774000e-03
-7.54500000 8.88638000e-03
-7.51500000 8.95596000e-03
-7.45682000 9.09364000e-03
-7.42682000 9.16609000e-03
-7.39682000 9.23958000e-03
-7.36682000 9.31409000e-03
-7.33682000 9.38969000e-03
-7.30682000 9.46636000e-03
-7.27682000 9.54416000e-03
-7.24682000 9.62307000e-03
-7.21682000 9.70316000e-03
-7.18682000 9.78446000e-03
-7.15682000 9.86695000e-03
-7.12682000 9.95068000e-03
-7.09682000 1.00356900e-02
-7.06682000 1.01220100e-02
-7.03682000 1.02096600e-02
-7.00682000 1.02986800e-02
-6.97682000 1.03890800e-02
-6.94682000 1.04809200e-02
-6.91682000 1.05742200e-02
-6.88682000 1.06690300e-02
-6.85682000 1.07653800e-02
-6.82682000 1.08633000e-02
-6.79682000 1.09628400e-02
-6.76682000 1.10640300e-02
-6.73682000 1.11669300e-02
-6.70682000 1.12715900e-02
-6.67682000 1.13780200e-02
-6.64682000 1.14862800e-02
-6.61682000 1.15964700e-02
-6.58682000 1.17085700e-02
-6.55682000 1.18226500e-02
-6.52682000 1.19388000e-02
-6.49682000 1.20570700e-02
-6.46682000 1.21774900e-02
-6.43682000 1.23001300e-02
-6.40682000 1.24250700e-02
-6.37682000 1.25523800e-02
-6.34682000 1.26821100e-02
-6.31682000 1.28143500e-02
-6.28682000 1.29491700e-02
-6.25682000 1.30866400e-02
-6.22682000 1.32268800e-02
-6.19682000 1.33699300e-02
-6.16682000 1.35159200e-02
-6.13682000 1.36649000e-02
-6.07864000 1.39628500e-02
-6.04864000 1.41213300e-02
-6.01864000 1.42832300e-02
-5.98864000 1.44487000e-02
-5.95864000 1.46178500e-02
-5.92864000 1.47908300e-02
-5.89864000 1.49677700e-02
-5.86864000 1.51488200e-02
-5.83864000 1.53341400e-02
-5.80864000 1.55238800e-02
-5.77864000 1.57182400e-02
-5.74864000 1.59173900e-02
-5.71864000 1.61215200e-02
-5.68864000 1.63308300e-02
-5.65864000 1.65455800e-02
-5.62864000 1.67659600e-02
-5.59864000 1.69922600e-02
-5.56864000 1.72247200e-02
-5.53864000 1.74636300e-02
-5.50864000 1.77093200e-02
-5.47864000 1.79620900e-02
-5.44864000 1.82223100e-02
-5.41864000 1.84903700e-02
-5.38864000 1.87666800e-02
-5.35864000 1.90516800e-02
-5.32864000 1.93458600e-02
-5.29864000 1.96497800e-02
-5.26864000 1.99640100e-02
-5.23864000 2.02891900e-02
-5.20864000 2.06260600e-02
-5.17864000 2.09754100e-02
-5.14864000 2.13381400e-02
-5.11864000 2.17152400e-02
-5.08864000 2.21078900e-02
-5.05864000 2.25174100e-02
-5.02864000 2.29453200e-02
-4.99864000 2.33934600e-02
-4.96864000 2.38639300e-02
-4.93864000 2.43593900e-02
-4.90864000 2.48830700e-02
-4.87864000 2.54390400e-02
-4.84864000 2.60326100e-02
-4.81864000 2.66708700e-02
-4.78864000 2.73636000e-02
-4.75864000 2.81249000e-02
-4.70046000 2.98869600e-02
-4.67046000 3.10282600e-02
-4.64046000 3.24432800e-02
-4.61046000 3.43230000e-02
-4.58046000 3.70710000e-02
-4.55046000 4.15971000e-02
-4.52046000 4.97624000e-02
-4.49046000 6.17038000e-02
-4.46046000 6.39518000e-02
-4.43046000 5.46913000e-02
-4.40046000 4.83577000e-02
-4.37046000 4.60528000e-02
-4.34046000 4.59199000e-02
-4.31046000 4.70518000e-02
-4.28046000 4.91749000e-02
-4.25046000 5.23876000e-02
-4.22046000 5.71768000e-02
-4.19046000 6.47294000e-02
-4.16046000 7.78117000e-02
-4.13046000 1.02120200e-01
-4.10046000 1.37755800e-01
-4.07046000 1.41497200e-01
-4.04046000 1.12476900e-01
-4.01046000 9.47752000e-02
-3.98046000 8.89586000e-02
-3.95046000 8.95722000e-02
-3.92046000 9.41917000e-02
-3.89046000 1.02149300e-01
-3.86046000 1.13737600e-01
-3.83046000 1.30049800e-01
-3.80046000 1.53246100e-01
-3.77046000 1.87340600e-01
-3.74046000 2.40059800e-01
-3.71046000 3.27298800e-01
-3.68046000 4.84167400e-01
-3.65046000 7.88271600e-01
-3.62046000 1.33547600e+00
-3.59046000 1.75687400e+00
-3.56046000 1.56997000e+00
-3.53046000 1.35780300e+00
-3.50046000 9.50374000e-01
-3.47046000 5.90669000e-01
-3.44046000 3.97610000e-01
-3.41046000 2.97406000e-01
-3.38046000 2.42737800e-01
-3.32227000 1.97105000e-01
-3.29227000 1.91284300e-01
-3.26227000 1.95464300e-01
-3.23227000 2.12645100e-01
-3.20227000 2.48278600e-01
-3.17227000 2.82212500e-01
-3.14227000 2.75171700e-01
-3.11227000 2.74673700e-01
-3.08227000 3.01925700e-01
-3.05227000 3.33042800e-01
-3.02227000 3.58508400e-01
-2.99227000 4.13601700e-01
-2.96227000 5.20117900e-01
-2.93227000 7.17304100e-01
-2.90227000 1.09370800e+00
-2.87227000 1.69935600e+00
-2.84227000 1.95886200e+00
-2.81227000 1.72526700e+00
-2.78227000 1.77717800e+00
-2.75227000 1.82875300e+00
-2.72227000 1.70110500e+00
-2.69227000 1.91203100e+00
-2.66227000 2.68112600e+00
-2.63227000 4.01950200e+00
-2.60227000 4.81981000e+00
-2.57227000 5.26866000e+00
-2.54227000 5.89185000e+00
-2.51227000 5.28194600e+00
-2.48227000 4.18000000e+00
-2.45227000 2.94185100e+00
-2.42227000 2.18721900e+00
-2.39227000 1.81182800e+00
-2.36227000 1.64768200e+00
-2.33227000 1.35921200e+00
-2.30227000 1.06468400e+00
-2.27227000 9.14754000e-01
-2.24227000 9.11457000e-01
-2.21227000 1.05405200e+00
-2.18227000 1.39754600e+00
-2.15227000 2.06365780e+00
-2.12227000 3.18190940e+00
-2.09227000 3.85034630e+00
-2.06227000 3.79639370e+00
-2.03227000 3.04838640e+00
-2.00227000 1.88040020e+00
-1.94409000 8.25965700e-01
-1.91409000 6.20217000e-01
-1.88409000 5.00417600e-01
-1.85409000 4.27366200e-01
-1.82409000 3.82554800e-01
-1.79409000 3.57011300e-01
-1.76409000 3.46930800e-01
-1.73409000 3.52233500e-01
-1.70409000 3.75193400e-01
-1.67409000 4.17041500e-01
-1.64409000 4.97676200e-01
-1.61409000 6.66259000e-01
-1.58409000 9.61017000e-01
-1.55409000 1.12975100e+00
-1.52409000 9.21168000e-01
-1.49409000 7.56659000e-01
-1.46409000 7.58373000e-01
-1.43409000 9.19867000e-01
-1.40409000 1.25405300e+00
-1.37409000 1.72188700e+00
-1.34409000 2.18773500e+00
-1.31409000 2.18329300e+00
-1.28409000 1.95708200e+00
-1.25409000 1.66455400e+00
-1.22409000 1.47033200e+00
-1.19409000 1.40386000e+00
-1.16409000 1.29905700e+00
-1.13409000 1.40265900e+00
-1.10409000 1.83886400e+00
-1.07409000 2.46022300e+00
-1.04409000 2.74540300e+00
-1.01409000 3.42009800e+00
-0.98409300 5.13606800e+00
-0.95409300 6.02817200e+00
-0.92409300 4.16576300e+00
-0.89409300 2.49375300e+00
-0.86409300 1.64867600e+00
-0.83409300 1.24692100e+00
-0.80409300 1.07744600e+00
-0.77409300 1.07351200e+00
-0.74409300 1.22549800e+00
-0.71409300 1.33307400e+00
-0.68409300 1.19175100e+00
-0.65409300 1.13696800e+00
-0.62409300 1.24236700e+00
-0.56591200 1.37735700e+00
-0.53591200 1.68385800e+00
-0.50591200 2.39735900e+00
-0.47591200 3.31608200e+00
-0.44591200 3.13220100e+00
-0.41591200 2.47260600e+00
-0.38591200 2.30112300e+00
-0.35591200 2.62370500e+00
-0.32591200 3.54903200e+00
-0.29591200 5.47975000e+00
-0.26591200 8.08837000e+00
-0.23591200 7.98346000e+00
-0.20591200 6.42640000e+00
-0.17591200 6.05279000e+00
-0.14591200 7.29598000e+00
-0.11591200 1.08908400e+01
-0.08591150 1.75776800e+01
-0.05591150 2.37571540e+01
-0.02591150 1.85803440e+01
0.00408849 1.07501580e+01
0.03408850 6.44380200e+00
0.06408850 4.31257400e+00
0.09408850 3.19632200e+00
0.12408800 2.50960400e+00
0.15408800 2.07230200e+00
0.18408800 1.81902600e+00
0.21408800 1.68887900e+00
0.24408800 1.64901700e+00
0.27408800 1.68693300e+00
0.30408800 1.80437300e+00
0.33408800 2.01682700e+00
0.36408800 2.35831000e+00
0.39408800 2.89404000e+00
0.42408800 3.74952900e+00
0.45408800 5.17891500e+00
0.48408800 7.73423400e+00
0.51408800 1.26766830e+01
0.54408800 2.24902690e+01
0.57408800 3.60656430e+01
0.60408800 3.39256960e+01
0.63408800 2.01903370e+01
0.66408800 1.15611310e+01
0.69408800 7.27770700e+00
0.72408800 5.07096600e+00
0.75408800 3.87116500e+00
