# E(MeV)  S_NSDRNSDR(Total=K0+2*K1) for Ni77_DDPCX
-12.96950000 -1.99175050e-02
-12.93950000 -1.93271010e-02
-12.90950000 -1.87502790e-02
-12.87950000 -1.81865120e-02
-12.84950000 -1.76352970e-02
-12.81950000 -1.70961500e-02
-12.78950000 -1.65685850e-02
-12.75950000 -1.60521790e-02
-12.72950000 -1.55465270e-02
-12.69950000 -1.50512250e-02
-12.66950000 -1.45658890e-02
-12.63950000 -1.40901550e-02
-12.60950000 -1.36236980e-02
-12.57950000 -1.31661550e-02
-12.54950000 -1.27172414e-02
-12.51950000 -1.22766335e-02
-12.48950000 -1.18440675e-02
-12.45950000 -1.14192394e-02
-12.42950000 -1.10019260e-02
-12.39950000 -1.05918420e-02
-12.36950000 -1.01887660e-02
-12.33950000 -9.79243200e-03
-12.30950000 -9.40265900e-03
-12.27950000 -9.01922100e-03
-12.24950000 -8.64191600e-03
-12.21950000 -8.27054000e-03
-12.18950000 -7.90491000e-03
-12.15950000 -7.54482200e-03
-12.12950000 -7.19015300e-03
-12.09950000 -6.84067900e-03
-12.06950000 -6.49627800e-03
-12.03950000 -6.15678700e-03
-12.00950000 -5.82206100e-03
-11.97950000 -5.49193800e-03
-11.94950000 -5.16629000e-03
-11.91950000 -4.84499000e-03
-11.88950000 -4.52788000e-03
-11.85950000 -4.21487000e-03
-11.82950000 -3.90584000e-03
-11.79950000 -3.60065000e-03
-11.76950000 -3.29920000e-03
-11.73950000 -3.00139000e-03
-11.70950000 -2.70710000e-03
-11.67950000 -2.41622000e-03
-11.64950000 -2.12869000e-03
-11.59140000 -1.58017000e-03
-11.56140000 -1.30187000e-03
-11.53140000 -1.02654000e-03
-11.50140000 -7.54100000e-04
-11.47140000 -4.84460000e-04
-11.44140000 -2.17560000e-04
-11.41140000 4.67140000e-05
-11.38140000 3.08414000e-04
-11.35140000 5.67608000e-04
-11.32140000 8.24366000e-04
-11.29140000 1.07877400e-03
-11.26140000 1.33089400e-03
-11.23140000 1.58077400e-03
-11.20140000 1.82850200e-03
-11.17140000 2.07412000e-03
-11.14140000 2.31770500e-03
-11.11140000 2.55931560e-03
-11.08140000 2.79899800e-03
-11.05140000 3.03680400e-03
-11.02140000 3.27282200e-03
-10.99140000 3.50707000e-03
-10.96140000 3.73962200e-03
-10.93140000 3.97052800e-03
-10.90140000 4.19983800e-03
-10.87140000 4.42761000e-03
-10.84140000 4.65387200e-03
-10.81140000 4.87870200e-03
-10.78140000 5.10212000e-03
-10.75140000 5.32421000e-03
-10.72140000 5.54500000e-03
-10.69140000 5.76451000e-03
-10.66140000 5.98283000e-03
-10.63140000 6.19998000e-03
-10.60140000 6.41603000e-03
-10.57140000 6.63100000e-03
-10.54140000 6.84496000e-03
-10.51140000 7.05792000e-03
-10.48140000 7.26997000e-03
-10.45140000 7.48112000e-03
-10.42140000 7.69144000e-03
-10.39140000 7.90094000e-03
-10.36140000 8.10971000e-03
-10.33140000 8.31776000e-03
-10.30140000 8.52517000e-03
-10.27140000 8.73195000e-03
-10.21320000 9.13142000e-03
-10.18320000 9.33668000e-03
-10.15320000 9.54152000e-03
-10.12320000 9.74600000e-03
-10.09320000 9.95014000e-03
-10.06320000 1.01540100e-02
-10.03320000 1.03576900e-02
-10.00320000 1.05612000e-02
-9.97318000 1.07646100e-02
-9.94318000 1.09679600e-02
-9.91318000 1.11713300e-02
-9.88318000 1.13747800e-02
-9.85318000 1.15783900e-02
-9.82318000 1.17822000e-02
-9.79318000 1.19862800e-02
-9.76318000 1.21907200e-02
-9.73318000 1.23955900e-02
-9.70318000 1.26009800e-02
-9.67318000 1.28069500e-02
-9.64318000 1.30135900e-02
-9.61318000 1.32210100e-02
-9.58318000 1.34293000e-02
-9.55318000 1.36385600e-02
-9.52318000 1.38488900e-02
-9.49318000 1.40604300e-02
-9.46318000 1.42732900e-02
-9.43318000 1.44875800e-02
-9.40318000 1.47034900e-02
-9.37318000 1.49211200e-02
-9.34318000 1.51406500e-02
-9.31318000 1.53622600e-02
-9.28318000 1.55861000e-02
-9.25318000 1.58124100e-02
-9.22318000 1.60414000e-02
-9.19318000 1.62733000e-02
-9.16318000 1.65083500e-02
-9.13318000 1.67468300e-02
-9.10318000 1.69890500e-02
-9.07318000 1.72353400e-02
-9.04318000 1.74860600e-02
-9.01318000 1.77415900e-02
-8.98318000 1.80024000e-02
-8.95318000 1.82689500e-02
-8.92318000 1.85417700e-02
-8.89318000 1.88214500e-02
-8.83500000 1.93860700e-02
-8.80500000 1.96901200e-02
-8.77500000 2.00042000e-02
-8.74500000 2.03293400e-02
-8.71500000 2.06667500e-02
-8.68500000 2.10178000e-02
-8.65500000 2.13840900e-02
-8.62500000 2.17674400e-02
-8.59500000 2.21699900e-02
-8.56500000 2.25942300e-02
-8.53500000 2.30431200e-02
-8.50500000 2.35201500e-02
-8.47500000 2.40295900e-02
-8.44500000 2.45766000e-02
-8.41500000 2.51675900e-02
-8.38500000 2.58106400e-02
-8.35500000 2.65163000e-02
-8.32500000 2.72984900e-02
-8.29500000 2.81767800e-02
-8.26500000 2.91804100e-02
-8.23500000 3.03556300e-02
-8.20500000 3.17853300e-02
-8.17500000 3.36333900e-02
-8.14500000 3.62241400e-02
-8.11500000 3.97819400e-02
-8.08500000 4.24452000e-02
-8.05500000 4.34514500e-02
-8.02500000 4.55679700e-02
-7.99500000 4.94070800e-02
-7.96500000 5.52724000e-02
-7.93500000 6.42016400e-02
-7.90500000 7.86260000e-02
-7.87500000 1.03262320e-01
-7.84500000 1.38254870e-01
-7.81500000 1.59052640e-01
-7.78500000 1.81129620e-01
-7.75500000 2.47493320e-01
-7.72500000 3.97216430e-01
-7.69500000 6.38451920e-01
-7.66500000 6.69210120e-01
-7.63500000 4.29514050e-01
-7.60500000 2.59724820e-01
-7.57500000 1.75636720e-01
-7.54500000 1.33765980e-01
-7.51500000 1.12412050e-01
-7.45682000 9.78611000e-02
-7.42682000 9.61862900e-02
-7.39682000 9.83711300e-02
-7.36682000 1.04933090e-01
-7.33682000 1.16323350e-01
-7.30682000 1.33317240e-01
-7.27682000 1.59099670e-01
-7.24682000 2.00237790e-01
-7.21682000 2.69209790e-01
-7.18682000 3.93601760e-01
-7.15682000 6.32132000e-01
-7.12682000 1.02656340e+00
-7.09682000 1.21943610e+00
-7.06682000 1.07049270e+00
-7.03682000 1.17444320e+00
-7.00682000 1.64942160e+00
-6.97682000 1.78250200e+00
-6.94682000 1.16277030e+00
-6.91682000 6.73661400e-01
-6.88682000 4.22446000e-01
-6.85682000 2.91902700e-01
-6.82682000 2.19285400e-01
-6.79682000 1.75445700e-01
-6.76682000 1.45909000e-01
-6.73682000 1.27533700e-01
-6.70682000 1.16413600e-01
-6.67682000 1.06236900e-01
-6.64682000 9.96816200e-02
-6.61682000 9.94424000e-02
-6.58682000 1.07179830e-01
-6.55682000 1.28220550e-01
-6.52682000 1.75747360e-01
-6.49682000 2.65369580e-01
-6.46682000 3.20550410e-01
-6.43682000 2.35925200e-01
-6.40682000 1.51731000e-01
-6.37682000 1.08129000e-01
-6.34682000 8.71543000e-02
-6.31682000 7.73661000e-02
-6.28682000 6.97417000e-02
-6.25682000 6.09849000e-02
-6.22682000 5.45021000e-02
-6.19682000 5.03274000e-02
-6.16682000 4.74890000e-02
-6.13682000 4.54312000e-02
-6.07864000 4.27126000e-02
-6.04864000 4.17217000e-02
-6.01864000 4.09181000e-02
-5.98864000 4.02603000e-02
-5.95864000 3.97193000e-02
-5.92864000 3.92741000e-02
-5.89864000 3.89089000e-02
-5.86864000 3.86125000e-02
-5.83864000 3.83761000e-02
-5.80864000 3.81936000e-02
-5.77864000 3.80603000e-02
-5.74864000 3.79731000e-02
-5.71864000 3.79305000e-02
-5.68864000 3.79326000e-02
-5.65864000 3.79807000e-02
-5.62864000 3.80778000e-02
-5.59864000 3.82295000e-02
-5.56864000 3.84439000e-02
-5.53864000 3.87336000e-02
-5.50864000 3.91170000e-02
-5.47864000 3.96209000e-02
-5.44864000 4.02858000e-02
-5.41864000 4.11747000e-02
-5.38864000 4.23872000e-02
-5.35864000 4.40890000e-02
-5.32864000 4.65696000e-02
-5.29864000 5.03656000e-02
-5.26864000 5.65457000e-02
-5.23864000 6.74124000e-02
-5.20864000 8.82134000e-02
-5.17864000 1.29538000e-01
-5.14864000 1.89419200e-01
-5.11864000 1.85813000e-01
-5.08864000 1.25840600e-01
-5.05864000 8.67484000e-02
-5.02864000 6.73485000e-02
-4.99864000 5.75210000e-02
-4.96864000 5.23995000e-02
-4.93864000 4.91956000e-02
-4.90864000 4.63214000e-02
-4.87864000 4.42071000e-02
-4.84864000 4.28408000e-02
-4.81864000 4.19330000e-02
-4.78864000 4.13057000e-02
-4.75864000 4.08620000e-02
-4.70046000 4.03310000e-02
-4.67046000 4.01697000e-02
-4.64046000 4.00613000e-02
-4.61046000 3.99939000e-02
-4.58046000 3.99593000e-02
-4.55046000 3.99508000e-02
-4.52046000 3.99638000e-02
-4.49046000 3.99949000e-02
-4.46046000 4.00408000e-02
-4.43046000 4.00992000e-02
-4.40046000 4.01687000e-02
-4.37046000 4.02475000e-02
-4.34046000 4.03344000e-02
-4.31046000 4.04284000e-02
-4.28046000 4.05288000e-02
-4.25046000 4.06346000e-02
-4.22046000 4.07458000e-02
-4.19046000 4.08613000e-02
-4.16046000 4.09810000e-02
-4.13046000 4.11044000e-02
-4.10046000 4.12313000e-02
-4.07046000 4.13614000e-02
-4.04046000 4.14944000e-02
-4.01046000 4.16301000e-02
-3.98046000 4.17685000e-02
-3.95046000 4.19091000e-02
-3.92046000 4.20521000e-02
-3.89046000 4.21971000e-02
-3.86046000 4.23441000e-02
-3.83046000 4.24930000e-02
-3.80046000 4.26438000e-02
-3.77046000 4.27963000e-02
-3.74046000 4.29505000e-02
-3.71046000 4.31062000e-02
-3.68046000 4.32637000e-02
-3.65046000 4.34224000e-02
-3.62046000 4.35827000e-02
-3.59046000 4.37445000e-02
-3.56046000 4.39074000e-02
-3.53046000 4.40718000e-02
-3.50046000 4.42375000e-02
-3.47046000 4.44043000e-02
-3.44046000 4.45725000e-02
-3.41046000 4.47420000e-02
-3.38046000 4.49126000e-02
-3.32227000 4.52466000e-02
-3.29227000 4.54208000e-02
-3.26227000 4.55957000e-02
-3.23227000 4.57721000e-02
-3.20227000 4.59493000e-02
-3.17227000 4.61277000e-02
-3.14227000 4.63072000e-02
-3.11227000 4.64877000e-02
-3.08227000 4.66694000e-02
-3.05227000 4.68520000e-02
-3.02227000 4.70356000e-02
-2.99227000 4.72205000e-02
-2.96227000 4.74062000e-02
-2.93227000 4.75932000e-02
-2.90227000 4.77810000e-02
-2.87227000 4.79698000e-02
-2.84227000 4.81597000e-02
-2.81227000 4.83507000e-02
-2.78227000 4.85425000e-02
-2.75227000 4.87356000e-02
-2.72227000 4.89296000e-02
-2.69227000 4.91246000e-02
-2.66227000 4.93204000e-02
-2.63227000 4.95176000e-02
-2.60227000 4.97156000e-02
-2.57227000 4.99146000e-02
-2.54227000 5.01148000e-02
-2.51227000 5.03160000e-02
-2.48227000 5.05181000e-02
-2.45227000 5.07213000e-02
-2.42227000 5.09255000e-02
-2.39227000 5.11307000e-02
-2.36227000 5.13371000e-02
-2.33227000 5.15444000e-02
-2.30227000 5.17529000e-02
-2.27227000 5.19622000e-02
-2.24227000 5.21728000e-02
-2.21227000 5.23843000e-02
-2.18227000 5.25969000e-02
-2.15227000 5.28108000e-02
-2.12227000 5.30254000e-02
-2.09227000 5.32413000e-02
-2.06227000 5.34583000e-02
-2.03227000 5.36765000e-02
-2.00227000 5.38956000e-02
-1.94409000 5.43237000e-02
-1.91409000 5.45463000e-02
-1.88409000 5.47699000e-02
-1.85409000 5.49945000e-02
-1.82409000 5.52203000e-02
-1.79409000 5.54475000e-02
-1.76409000 5.56755000e-02
-1.73409000 5.59049000e-02
-1.70409000 5.61355000e-02
-1.67409000 5.63672000e-02
-1.64409000 5.66001000e-02
-1.61409000 5.68343000e-02
-1.58409000 5.70694000e-02
-1.55409000 5.73061000e-02
-1.52409000 5.75438000e-02
-1.49409000 5.77829000e-02
-1.46409000 5.80231000e-02
-1.43409000 5.82647000e-02
-1.40409000 5.85074000e-02
-1.37409000 5.87514000e-02
-1.34409000 5.89967000e-02
-1.31409000 5.92434000e-02
-1.28409000 5.94913000e-02
-1.25409000 5.97406000e-02
-1.22409000 5.99913000e-02
-1.19409000 6.02434000e-02
-1.16409000 6.04967000e-02
-1.13409000 6.07513000e-02
-1.10409000 6.10074000e-02
-1.07409000 6.12650000e-02
-1.04409000 6.15237000e-02
-1.01409000 6.17841000e-02
-0.98409300 6.20458000e-02
-0.95409300 6.23090000e-02
-0.92409300 6.25737000e-02
-0.89409300 6.28400000e-02
-0.86409300 6.31075000e-02
-0.83409300 6.33767000e-02
-0.80409300 6.36473000e-02
-0.77409300 6.39196000e-02
-0.74409300 6.41933000e-02
-0.71409300 6.44687000e-02
-0.68409300 6.47456000e-02
-0.65409300 6.50241000e-02
-0.62409300 6.53043000e-02
-0.56591200 6.58524000e-02
-0.53591200 6.61376000e-02
-0.50591200 6.64244000e-02
-0.47591200 6.67129000e-02
-0.44591200 6.70032000e-02
-0.41591200 6.72951000e-02
-0.38591200 6.75891000e-02
-0.35591200 6.78847000e-02
-0.32591200 6.81824000e-02
-0.29591200 6.84818000e-02
-0.26591200 6.87832000e-02
-0.23591200 6.90865000e-02
-0.20591200 6.93917000e-02
-0.17591200 6.96991000e-02
-0.14591200 7.00084000e-02
-0.11591200 7.03199000e-02
-0.08591150 7.06336000e-02
-0.05591150 7.09493000e-02
-0.02591150 7.12674000e-02
0.00408849 7.15877000e-02
0.03408850 7.19104000e-02
0.06408850 7.22355000e-02
0.09408850 7.25632000e-02
0.12408800 7.28933000e-02
0.15408800 7.32264000e-02
0.18408800 7.35620000e-02
0.21408800 7.39005000e-02
0.24408800 7.42421000e-02
0.27408800 7.45869000e-02
0.30408800 7.49350000e-02
0.33408800 7.52869000e-02
0.36408800 7.56423000e-02
0.39408800 7.60021000e-02
0.42408800 7.63661000e-02
0.45408800 7.67350000e-02
0.48408800 7.71093000e-02
0.51408800 7.74896000e-02
0.54408800 7.78765000e-02
0.57408800 7.82710000e-02
0.60408800 7.86746000e-02
0.63408800 7.90886000e-02
0.66408800 7.95150000e-02
0.69408800 7.99568000e-02
0.72408800 8.04175000e-02
0.75408800 8.09025000e-02
