# E(MeV)  S_GAMTGAMT(K=0) for Ni77_DDPCX
-12.96950000 1.09934000e-03
-12.93950000 1.10378000e-03
-12.90950000 1.10825000e-03
-12.87950000 1.11275000e-03
-12.84950000 1.11728000e-03
-12.81950000 1.12184000e-03
-12.78950000 1.12643000e-03
-12.75950000 1.13105000e-03
-12.72950000 1.13570000e-03
-12.69950000 1.14038000e-03
-12.66950000 1.14509000e-03
-12.63950000 1.14984000e-03
-12.60950000 1.15461000e-03
-12.57950000 1.15942000e-03
-12.54950000 1.16425000e-03
-12.51950000 1.16912000e-03
-12.48950000 1.17403000e-03
-12.45950000 1.17896000e-03
-12.42950000 1.18393000e-03
-12.39950000 1.18894000e-03
-12.36950000 1.19397000e-03
-12.33950000 1.19904000e-03
-12.30950000 1.20415000e-03
-12.27950000 1.20929000e-03
-12.24950000 1.21447000e-03
-12.21950000 1.21968000e-03
-12.18950000 1.22493000e-03
-12.15950000 1.23021000e-03
-12.12950000 1.23554000e-03
-12.09950000 1.24090000e-03
-12.06950000 1.24629000e-03
-12.03950000 1.25173000e-03
-12.00950000 1.25720000e-03
-11.97950000 1.26271000e-03
-11.94950000 1.26826000e-03
-11.91950000 1.27385000e-03
-11.88950000 1.27948000e-03
-11.85950000 1.28515000e-03
-11.82950000 1.29086000e-03
-11.79950000 1.29661000e-03
-11.76950000 1.30241000e-03
-11.73950000 1.30824000e-03
-11.70950000 1.31412000e-03
-11.67950000 1.32004000e-03
-11.64950000 1.32601000e-03
-11.59140000 1.33770000e-03
-11.56140000 1.34379000e-03
-11.53140000 1.34993000e-03
-11.50140000 1.35612000e-03
-11.47140000 1.36235000e-03
-11.44140000 1.36863000e-03
-11.41140000 1.37495000e-03
-11.38140000 1.38132000e-03
-11.35140000 1.38775000e-03
-11.32140000 1.39421000e-03
-11.29140000 1.40073000e-03
-11.26140000 1.40730000e-03
-11.23140000 1.41392000e-03
-11.20140000 1.42059000e-03
-11.17140000 1.42731000e-03
-11.14140000 1.43409000e-03
-11.11140000 1.44091000e-03
-11.08140000 1.44779000e-03
-11.05140000 1.45473000e-03
-11.02140000 1.46171000e-03
-10.99140000 1.46876000e-03
-10.96140000 1.47585000e-03
-10.93140000 1.48301000e-03
-10.90140000 1.49022000e-03
-10.87140000 1.49749000e-03
-10.84140000 1.50482000e-03
-10.81140000 1.51220000e-03
-10.78140000 1.51965000e-03
-10.75140000 1.52716000e-03
-10.72140000 1.53472000e-03
-10.69140000 1.54235000e-03
-10.66140000 1.55004000e-03
-10.63140000 1.55780000e-03
-10.60140000 1.56562000e-03
-10.57140000 1.57350000e-03
-10.54140000 1.58145000e-03
-10.51140000 1.58947000e-03
-10.48140000 1.59755000e-03
-10.45140000 1.60570000e-03
-10.42140000 1.61392000e-03
-10.39140000 1.62221000e-03
-10.36140000 1.63057000e-03
-10.33140000 1.63900000e-03
-10.30140000 1.64751000e-03
-10.27140000 1.65608000e-03
-10.21320000 1.67293000e-03
-10.18320000 1.68173000e-03
-10.15320000 1.69060000e-03
-10.12320000 1.69956000e-03
-10.09320000 1.70859000e-03
-10.06320000 1.71770000e-03
-10.03320000 1.72689000e-03
-10.00320000 1.73617000e-03
-9.97318000 1.74552000e-03
-9.94318000 1.75496000e-03
-9.91318000 1.76449000e-03
-9.88318000 1.77410000e-03
-9.85318000 1.78381000e-03
-9.82318000 1.79360000e-03
-9.79318000 1.80348000e-03
-9.76318000 1.81345000e-03
-9.73318000 1.82351000e-03
-9.70318000 1.83367000e-03
-9.67318000 1.84392000e-03
-9.64318000 1.85427000e-03
-9.61318000 1.86471000e-03
-9.58318000 1.87526000e-03
-9.55318000 1.88590000e-03
-9.52318000 1.89665000e-03
-9.49318000 1.90750000e-03
-9.46318000 1.91845000e-03
-9.43318000 1.92951000e-03
-9.40318000 1.94068000e-03
-9.37318000 1.95196000e-03
-9.34318000 1.96334000e-03
-9.31318000 1.97484000e-03
-9.28318000 1.98646000e-03
-9.25318000 1.99819000e-03
-9.22318000 2.01004000e-03
-9.19318000 2.02200000e-03
-9.16318000 2.03409000e-03
-9.13318000 2.04630000e-03
-9.10318000 2.05863000e-03
-9.07318000 2.07109000e-03
-9.04318000 2.08368000e-03
-9.01318000 2.09640000e-03
-8.98318000 2.10925000e-03
-8.95318000 2.12224000e-03
-8.92318000 2.13536000e-03
-8.89318000 2.14862000e-03
-8.83500000 2.17474000e-03
-8.80500000 2.18842000e-03
-8.77500000 2.20225000e-03
-8.74500000 2.21623000e-03
-8.71500000 2.23036000e-03
-8.68500000 2.24465000e-03
-8.65500000 2.25909000e-03
-8.62500000 2.27369000e-03
-8.59500000 2.28846000e-03
-8.56500000 2.30339000e-03
-8.53500000 2.31848000e-03
-8.50500000 2.33375000e-03
-8.47500000 2.34920000e-03
-8.44500000 2.36481000e-03
-8.41500000 2.38061000e-03
-8.38500000 2.39659000e-03
-8.35500000 2.41276000e-03
-8.32500000 2.42912000e-03
-8.29500000 2.44567000e-03
-8.26500000 2.46241000e-03
-8.23500000 2.47936000e-03
-8.20500000 2.49651000e-03
-8.17500000 2.51386000e-03
-8.14500000 2.53143000e-03
-8.11500000 2.54921000e-03
-8.08500000 2.56721000e-03
-8.05500000 2.58543000e-03
-8.02500000 2.60388000e-03
-7.99500000 2.62255000e-03
-7.96500000 2.64147000e-03
-7.93500000 2.66062000e-03
-7.90500000 2.68002000e-03
-7.87500000 2.69967000e-03
-7.84500000 2.71957000e-03
-7.81500000 2.73973000e-03
-7.78500000 2.76016000e-03
-7.75500000 2.78085000e-03
-7.72500000 2.80182000e-03
-7.69500000 2.82307000e-03
-7.66500000 2.84461000e-03
-7.63500000 2.86644000e-03
-7.60500000 2.88856000e-03
-7.57500000 2.91100000e-03
-7.54500000 2.93374000e-03
-7.51500000 2.95680000e-03
-7.45682000 3.00246000e-03
-7.42682000 3.02649000e-03
-7.39682000 3.05088000e-03
-7.36682000 3.07561000e-03
-7.33682000 3.10071000e-03
-7.30682000 3.12618000e-03
-7.27682000 3.15202000e-03
-7.24682000 3.17825000e-03
-7.21682000 3.20488000e-03
-7.18682000 3.23192000e-03
-7.15682000 3.25937000e-03
-7.12682000 3.28724000e-03
-7.09682000 3.31555000e-03
-7.06682000 3.34431000e-03
-7.03682000 3.37352000e-03
-7.00682000 3.40320000e-03
-6.97682000 3.43336000e-03
-6.94682000 3.46402000e-03
-6.91682000 3.49518000e-03
-6.88682000 3.52685000e-03
-6.85682000 3.55906000e-03
-6.82682000 3.59182000e-03
-6.79682000 3.62514000e-03
-6.76682000 3.65903000e-03
-6.73682000 3.69351000e-03
-6.70682000 3.72861000e-03
-6.67682000 3.76432000e-03
-6.64682000 3.80068000e-03
-6.61682000 3.83771000e-03
-6.58682000 3.87541000e-03
-6.55682000 3.91381000e-03
-6.52682000 3.95294000e-03
-6.49682000 3.99281000e-03
-6.46682000 4.03345000e-03
-6.43682000 4.07487000e-03
-6.40682000 4.11711000e-03
-6.37682000 4.16020000e-03
-6.34682000 4.20415000e-03
-6.31682000 4.24899000e-03
-6.28682000 4.29477000e-03
-6.25682000 4.34150000e-03
-6.22682000 4.38922000e-03
-6.19682000 4.43797000e-03
-6.16682000 4.48778000e-03
-6.13682000 4.53868000e-03
-6.07864000 4.64069000e-03
-6.04864000 4.69507000e-03
-6.01864000 4.75071000e-03
-5.98864000 4.80768000e-03
-5.95864000 4.86601000e-03
-5.92864000 4.92577000e-03
-5.89864000 4.98701000e-03
-5.86864000 5.04980000e-03
-5.83864000 5.11420000e-03
-5.80864000 5.18028000e-03
-5.77864000 5.24812000e-03
-5.74864000 5.31779000e-03
-5.71864000 5.38938000e-03
-5.68864000 5.46297000e-03
-5.65864000 5.53868000e-03
-5.62864000 5.61660000e-03
-5.59864000 5.69684000e-03
-5.56864000 5.77952000e-03
-5.53864000 5.86477000e-03
-5.50864000 5.95274000e-03
-5.47864000 6.04357000e-03
-5.44864000 6.13743000e-03
-5.41864000 6.23451000e-03
-5.38864000 6.33500000e-03
-5.35864000 6.43912000e-03
-5.32864000 6.54710000e-03
-5.29864000 6.65922000e-03
-5.26864000 6.77577000e-03
-5.23864000 6.89707000e-03
-5.20864000 7.02352000e-03
-5.17864000 7.15551000e-03
-5.14864000 7.29354000e-03
-5.11864000 7.43816000e-03
-5.08864000 7.59001000e-03
-5.05864000 7.74985000e-03
-5.02864000 7.91858000e-03
-4.99864000 8.09728000e-03
-4.96864000 8.28727000e-03
-4.93864000 8.49021000e-03
-4.90864000 8.70821000e-03
-4.87864000 8.94400000e-03
-4.84864000 9.20123000e-03
-4.81864000 9.48495000e-03
-4.78864000 9.80232000e-03
-4.75864000 1.01639000e-02
-4.70046000 1.10612000e-02
-4.67046000 1.16932000e-02
-4.64046000 1.25346000e-02
-4.61046000 1.37444000e-02
-4.58046000 1.56626000e-02
-4.55046000 1.90623000e-02
-4.52046000 2.55016000e-02
-4.49046000 3.47052000e-02
-4.46046000 3.46270000e-02
-4.43046000 2.62735000e-02
-4.40046000 2.10199000e-02
-4.37046000 1.86996000e-02
-4.34046000 1.78157000e-02
-4.31046000 1.76510000e-02
-4.28046000 1.78975000e-02
-4.25046000 1.84196000e-02
-4.22046000 1.91588000e-02
-4.19046000 2.00954000e-02
-4.16046000 2.12323000e-02
-4.13046000 2.25890000e-02
-4.10046000 2.42004000e-02
-4.07046000 2.61184000e-02
-4.04046000 2.84161000e-02
-4.01046000 3.11956000e-02
-3.98046000 3.46006000e-02
-3.95046000 3.88368000e-02
-3.92046000 4.42053000e-02
-3.89046000 5.11593000e-02
-3.86046000 6.04056000e-02
-3.83046000 7.30910000e-02
-3.80046000 9.11695000e-02
-3.77046000 1.18166000e-01
-3.74046000 1.60887000e-01
-3.71046000 2.33529000e-01
-3.68046000 3.67926000e-01
-3.65046000 6.34923000e-01
-3.62046000 1.11537000e+00
-3.59046000 1.40641000e+00
-3.56046000 9.74980000e-01
-3.53046000 5.49027000e-01
-3.50046000 3.27860000e-01
-3.47046000 2.15745000e-01
-3.44046000 1.54410000e-01
-3.41046000 1.18231000e-01
-3.38046000 9.56008000e-02
-3.32227000 7.14880000e-02
-3.29227000 6.47071000e-02
-3.26227000 6.02353000e-02
-3.23227000 5.74691000e-02
-3.20227000 5.60428000e-02
-3.17227000 5.57425000e-02
-3.14227000 5.64597000e-02
-3.11227000 5.81677000e-02
-3.08227000 6.09137000e-02
-3.05227000 6.48228000e-02
-3.02227000 7.01144000e-02
-2.99227000 7.71377000e-02
-2.96227000 8.64359000e-02
-2.93227000 9.88661000e-02
-2.90227000 1.15832000e-01
-2.87227000 1.39766000e-01
-2.84227000 1.75180000e-01
-2.81227000 2.30439000e-01
-2.78227000 3.13846000e-01
-2.75227000 4.13963000e-01
-2.72227000 5.67833000e-01
-2.69227000 8.85485000e-01
-2.66227000 1.53468000e+00
-2.63227000 2.51039000e+00
-2.60227000 2.55221000e+00
-2.57227000 1.68814000e+00
-2.54227000 1.20307000e+00
-2.51227000 9.78966000e-01
-2.48227000 7.82840000e-01
-2.45227000 7.24871000e-01
-2.42227000 6.51351000e-01
-2.39227000 4.94948000e-01
-2.36227000 4.28736000e-01
-2.33227000 3.99746000e-01
-2.30227000 2.93884000e-01
-2.27227000 2.01314000e-01
-2.24227000 1.48459000e-01
-2.21227000 1.17712000e-01
-2.18227000 9.82600000e-02
-2.15227000 8.50618000e-02
-2.12227000 7.56494000e-02
-2.09227000 6.87063000e-02
-2.06227000 6.34737000e-02
-2.03227000 5.94864000e-02
-2.00227000 5.64462000e-02
-1.94409000 5.25717000e-02
-1.91409000 5.14070000e-02
-1.88409000 5.07336000e-02
-1.85409000 5.05362000e-02
-1.82409000 5.08368000e-02
-1.79409000 5.17073000e-02
-1.76409000 5.32988000e-02
-1.73409000 5.59095000e-02
-1.70409000 6.01394000e-02
-1.67409000 6.72735000e-02
-1.64409000 8.01902000e-02
-1.61409000 1.04247000e-01
-1.58409000 1.35015000e-01
-1.55409000 1.33015000e-01
-1.52409000 1.15768000e-01
-1.49409000 1.14621000e-01
-1.46409000 1.32909000e-01
-1.43409000 1.79721000e-01
-1.40409000 2.75645000e-01
-1.37409000 3.83891000e-01
-1.34409000 3.28805000e-01
-1.31409000 2.16221000e-01
-1.28409000 1.54614000e-01
-1.25409000 1.26762000e-01
-1.22409000 1.14582000e-01
-1.19409000 1.12538000e-01
-1.16409000 1.20167000e-01
-1.13409000 1.41401000e-01
-1.10409000 1.86024000e-01
-1.07409000 2.43183000e-01
-1.04409000 2.28543000e-01
-1.01409000 1.77158000e-01
-0.98409300 1.50348000e-01
-0.95409300 1.42512000e-01
-0.92409300 1.45563000e-01
-0.89409300 1.56933000e-01
-0.86409300 1.77820000e-01
-0.83409300 2.13649000e-01
-0.80409300 2.78042000e-01
-0.77409300 4.01796000e-01
-0.74409300 6.17264000e-01
-0.71409300 7.39744000e-01
-0.68409300 5.62343000e-01
-0.65409300 3.99454000e-01
-0.62409300 3.24773000e-01
-0.56591200 2.95575000e-01
-0.53591200 3.07748000e-01
-0.50591200 3.31559000e-01
-0.47591200 3.66282000e-01
-0.44591200 4.13061000e-01
-0.41591200 4.74702000e-01
-0.38591200 5.56069000e-01
-0.35591200 6.65181000e-01
-0.32591200 8.15552000e-01
-0.29591200 1.03123000e+00
-0.26591200 1.35759000e+00
-0.23591200 1.87386000e+00
-0.20591200 2.61452000e+00
-0.17591200 3.52577000e+00
-0.14591200 5.17862000e+00
-0.11591200 8.64896000e+00
-0.08591150 1.54332000e+01
-0.05591150 2.22199000e+01
-0.02591150 1.74750000e+01
0.00408849 9.85882000e+00
0.03408850 5.64419000e+00
0.06408850 3.52542000e+00
0.09408850 2.38261000e+00
0.12408800 1.71315000e+00
0.15408800 1.29275000e+00
0.18408800 1.01378000e+00
0.21408800 8.20467000e-01
0.24408800 6.81915000e-01
0.27408800 5.79999000e-01
0.30408800 5.03587000e-01
0.33408800 4.45577000e-01
0.36408800 4.01304000e-01
0.39408800 3.67640000e-01
0.42408800 3.42469000e-01
0.45408800 3.24375000e-01
0.48408800 3.12454000e-01
0.51408800 3.06203000e-01
0.54408800 3.05469000e-01
0.57408800 3.10443000e-01
0.60408800 3.21696000e-01
0.63408800 3.40277000e-01
0.66408800 3.67891000e-01
0.69408800 4.07207000e-01
0.72408800 4.62406000e-01
0.75408800 5.40165000e-01
