# E(MeV)  S_GAMTGAMT(Total=K0+2*K1) for Np256_DDPCX
-7.50723000 7.71537000e-03
-7.47723000 7.77548000e-03
-7.44723000 7.83083000e-03
-7.41723000 7.88254000e-03
-7.38723000 7.93132000e-03
-7.35723000 7.97762000e-03
-7.32723000 8.02164000e-03
-7.29723000 8.06315000e-03
-7.26723000 8.10141000e-03
-7.23723000 8.13610000e-03
-7.20723000 8.17270000e-03
-7.17723000 8.21063000e-03
-7.14723000 8.24110000e-03
-7.11723000 8.25839000e-03
-7.08723000 8.25060000e-03
-7.05723000 8.19450000e-03
-7.02723000 8.11473000e-03
-6.99723000 8.19817000e-03
-6.96723000 8.36392000e-03
-6.93723000 8.47854000e-03
-6.90723000 8.55601000e-03
-6.87723000 8.61607000e-03
-6.84723000 8.66781000e-03
-6.81723000 8.71528000e-03
-6.78723000 8.76039000e-03
-6.75723000 8.80414000e-03
-6.72723000 8.84708000e-03
-6.67528000 8.92037000e-03
-6.64528000 8.96240000e-03
-6.61528000 9.00434000e-03
-6.58528000 9.04626000e-03
-6.55528000 9.08818000e-03
-6.52528000 9.13012000e-03
-6.49528000 9.17210000e-03
-6.46528000 9.21401000e-03
-6.43528000 9.25573000e-03
-6.40528000 9.29680000e-03
-6.37528000 9.33645000e-03
-6.34528000 9.37560000e-03
-6.31528000 9.42055000e-03
-6.28528000 9.46838000e-03
-6.25528000 9.51473000e-03
-6.22528000 9.56010000e-03
-6.19528000 9.60515000e-03
-6.16528000 9.65022000e-03
-6.13528000 9.69542000e-03
-6.10528000 9.74084000e-03
-6.07528000 9.78651000e-03
-6.04528000 9.83245000e-03
-6.01528000 9.87871000e-03
-5.98528000 9.92527000e-03
-5.95528000 9.97215000e-03
-5.92528000 1.00193800e-02
-5.89528000 1.00669600e-02
-5.84333000 1.01502100e-02
-5.81333000 1.01987800e-02
-5.78333000 1.02477400e-02
-5.75333000 1.02971000e-02
-5.72333000 1.03468600e-02
-5.69333000 1.03970400e-02
-5.66333000 1.04476600e-02
-5.63333000 1.04987000e-02
-5.60333000 1.05502100e-02
-5.57333000 1.06021700e-02
-5.54333000 1.06546000e-02
-5.51333000 1.07075400e-02
-5.48333000 1.07609700e-02
-5.45333000 1.08149400e-02
-5.42333000 1.08694400e-02
-5.39333000 1.09245000e-02
-5.36333000 1.09801500e-02
-5.33333000 1.10364000e-02
-5.30333000 1.10932700e-02
-5.27333000 1.11507900e-02
-5.24333000 1.12090200e-02
-5.21333000 1.12679500e-02
-5.18333000 1.13276700e-02
-5.15333000 1.13882100e-02
-5.12333000 1.14496200e-02
-5.09333000 1.15119600e-02
-5.06333000 1.15753300e-02
-5.01138000 1.16877900e-02
-4.98138000 1.17545500e-02
-4.95138000 1.18228500e-02
-4.92138000 1.18929400e-02
-4.89138000 1.19651300e-02
-4.86138000 1.20398600e-02
-4.83138000 1.21177600e-02
-4.80138000 1.21996500e-02
-4.77138000 1.22867700e-02
-4.74138000 1.23810300e-02
-4.71138000 1.24854000e-02
-4.68138000 1.26047100e-02
-4.65138000 1.27474500e-02
-4.62138000 1.29291200e-02
-4.59138000 1.31804500e-02
-4.56138000 1.35672200e-02
-4.53138000 1.42391100e-02
-4.50138000 1.55053900e-02
-4.47138000 1.73930700e-02
-4.44138000 1.75585900e-02
-4.41138000 1.58372600e-02
-4.38138000 1.46847500e-02
-4.35138000 1.41484000e-02
-4.32138000 1.39108200e-02
-4.29138000 1.38152500e-02
-4.26138000 1.37931600e-02
-4.23138000 1.38128200e-02
-4.17943000 1.39037500e-02
-4.14943000 1.39777500e-02
-4.11943000 1.40638000e-02
-4.08943000 1.41610500e-02
-4.05943000 1.42700900e-02
-4.02943000 1.43930800e-02
-3.99943000 1.45343500e-02
-3.96943000 1.47020600e-02
-3.93943000 1.49116800e-02
-3.90943000 1.51941400e-02
-3.87943000 1.56160000e-02
-3.84943000 1.63288200e-02
-3.81943000 1.76439300e-02
-3.78943000 1.95669900e-02
-3.75943000 1.97235800e-02
-3.72943000 1.80497700e-02
-3.69943000 1.69645200e-02
-3.66943000 1.64921400e-02
-3.63943000 1.63193800e-02
-3.60943000 1.62938400e-02
-3.57943000 1.63472100e-02
-3.54943000 1.64397100e-02
-3.51943000 1.65612500e-02
-3.48943000 1.67111000e-02
-3.45943000 1.68854900e-02
-3.42943000 1.70828200e-02
-3.39943000 1.73038000e-02
-3.34748000 1.77505400e-02
-3.31748000 1.80538900e-02
-3.28748000 1.84000700e-02
-3.25748000 1.88010800e-02
-3.22748000 1.92749000e-02
-3.19748000 1.98499000e-02
-3.16748000 2.05721800e-02
-3.13748000 2.14977500e-02
-3.10748000 2.26294700e-02
-3.07748000 2.41177200e-02
-3.04748000 2.63533000e-02
-3.01748000 2.98797800e-02
-2.98748000 3.55119000e-02
-2.95748000 4.54402000e-02
-2.92748000 6.39246000e-02
-2.89748000 8.74318000e-02
-2.86748000 9.78695000e-02
-2.83748000 8.20505000e-02
-2.80748000 6.08225000e-02
-2.77748000 5.04517000e-02
-2.74748000 4.83516000e-02
-2.71748000 5.27218000e-02
-2.68748000 6.17683000e-02
-2.65748000 7.55605000e-02
-2.62748000 9.98939000e-02
-2.59748000 1.24414000e-01
-2.56748000 1.26111500e-01
-2.51553000 1.02890000e-01
-2.48553000 7.71590000e-02
-2.45553000 5.62127000e-02
-2.42553000 4.55843000e-02
-2.39553000 4.09621000e-02
-2.36553000 4.01782000e-02
-2.33553000 4.31522000e-02
-2.30553000 4.93381400e-02
-2.27553000 5.14843000e-02
-2.24553000 4.88558800e-02
-2.21553000 4.49542400e-02
-2.18553000 4.41713600e-02
-2.15553000 4.78171000e-02
-2.12553000 5.58196000e-02
-2.09553000 6.93488000e-02
-2.06553000 9.71801000e-02
-2.03553000 1.47909660e-01
-2.00553000 1.80094520e-01
-1.97553000 1.35411200e-01
-1.94553000 9.17016000e-02
-1.91553000 7.10381000e-02
-1.88553000 5.86110000e-02
-1.85553000 5.10440000e-02
-1.82553000 4.89968000e-02
-1.79553000 4.78022400e-02
-1.76553000 4.50132400e-02
-1.73553000 4.52056000e-02
-1.68358000 4.56009000e-02
-1.65358000 4.17519000e-02
-1.62358000 3.98589000e-02
-1.59358000 3.97205000e-02
-1.56358000 4.08415000e-02
-1.53358000 4.32215000e-02
-1.50358000 4.73245000e-02
-1.47358000 5.43881000e-02
-1.44358000 6.71532000e-02
-1.41358000 8.93167000e-02
-1.38358000 1.16071700e-01
-1.35358000 1.21398400e-01
-1.32358000 1.15261500e-01
-1.29358000 1.33745800e-01
-1.26358000 1.90602500e-01
-1.23358000 2.56286200e-01
-1.20358000 2.18254600e-01
-1.17358000 1.48409000e-01
-1.14358000 1.14161300e-01
-1.11358000 1.07951000e-01
-1.08358000 1.24198500e-01
-1.05358000 1.43129300e-01
-1.02358000 1.27516500e-01
-0.99358100 1.06208100e-01
-0.96358100 8.79583000e-02
-0.93358100 7.68472000e-02
-0.90358100 7.45555000e-02
-0.85163100 8.79867000e-02
-0.82163100 1.07142200e-01
-0.79163100 1.23185300e-01
-0.76163100 1.08877500e-01
-0.73163100 8.95051000e-02
-0.70163100 7.83438000e-02
-0.67163100 7.41802000e-02
-0.64163100 7.45953000e-02
-0.61163100 7.83946000e-02
-0.58163100 8.60484000e-02
-0.55163100 9.96060000e-02
-0.52163100 1.23790100e-01
-0.49163100 1.65719700e-01
-0.46163100 2.09035200e-01
-0.43163100 2.13814400e-01
-0.40163100 2.11900000e-01
-0.37163100 2.33572200e-01
-0.34163100 2.74560400e-01
-0.31163100 2.94193800e-01
-0.28163100 3.39166800e-01
-0.25163100 4.68150400e-01
-0.22163100 7.39952400e-01
-0.19163100 1.16355600e+00
-0.16163100 1.29082720e+00
-0.13163100 9.60613200e-01
-0.10163100 5.91946400e-01
-0.07163070 3.86290800e-01
-0.01968040 2.52498000e-01
0.01031960 2.34356600e-01
0.04031960 2.29064700e-01
0.07031960 2.22495200e-01
0.10032000 2.32479700e-01
0.13032000 2.65322700e-01
0.16032000 3.33136900e-01
0.19032000 4.54319300e-01
0.22032000 5.87954200e-01
0.25032000 7.39209600e-01
0.28032000 7.21151300e-01
0.31032000 6.02258600e-01
0.34032000 6.19506500e-01
0.37032000 7.72818100e-01
0.40032000 9.85800000e-01
0.43032000 9.25168600e-01
0.46032000 6.67389700e-01
0.49032000 4.77716100e-01
0.52032000 3.95675000e-01
0.55032000 3.81762000e-01
0.58032000 3.52463000e-01
0.61032000 3.08170100e-01
0.64032000 2.82653800e-01
0.67032000 2.63843400e-01
0.70032000 2.37672100e-01
0.73032000 2.15007400e-01
0.76032000 2.00375400e-01
