# E(MeV)  S_GAMTGAMT(K=1) for Np256_DDPCX
-7.50723000 2.61657000e-03
-7.47723000 2.63348000e-03
-7.44723000 2.64934000e-03
-7.41723000 2.66441000e-03
-7.38723000 2.67885000e-03
-7.35723000 2.69275000e-03
-7.32723000 2.70617000e-03
-7.29723000 2.71910000e-03
-7.26723000 2.73148000e-03
-7.23723000 2.74315000e-03
-7.20723000 2.75382000e-03
-7.17723000 2.76286000e-03
-7.14723000 2.76903000e-03
-7.11723000 2.76953000e-03
-7.08723000 2.75798000e-03
-7.05723000 2.72254000e-03
-7.02723000 2.67543000e-03
-6.99723000 2.71003000e-03
-6.96723000 2.78586000e-03
-6.93723000 2.83618000e-03
-6.90723000 2.86797000e-03
-6.87723000 2.89108000e-03
-6.84723000 2.91005000e-03
-6.81723000 2.92690000e-03
-6.78723000 2.94258000e-03
-6.75723000 2.95758000e-03
-6.72723000 2.97217000e-03
-6.67528000 2.99689000e-03
-6.64528000 3.01100000e-03
-6.61528000 3.02505000e-03
-6.58528000 3.03907000e-03
-6.55528000 3.05307000e-03
-6.52528000 3.06706000e-03
-6.49528000 3.08104000e-03
-6.46528000 3.09496000e-03
-6.43528000 3.10875000e-03
-6.40528000 3.12219000e-03
-6.37528000 3.13488000e-03
-6.34528000 3.14729000e-03
-6.31528000 3.16256000e-03
-6.28528000 3.17923000e-03
-6.25528000 3.19512000e-03
-6.22528000 3.21048000e-03
-6.19528000 3.22564000e-03
-6.16528000 3.24076000e-03
-6.13528000 3.25590000e-03
-6.10528000 3.27110000e-03
-6.07528000 3.28638000e-03
-6.04528000 3.30174000e-03
-6.01528000 3.31721000e-03
-5.98528000 3.33278000e-03
-5.95528000 3.34845000e-03
-5.92528000 3.36424000e-03
-5.89528000 3.38015000e-03
-5.84333000 3.40798000e-03
-5.81333000 3.42422000e-03
-5.78333000 3.44059000e-03
-5.75333000 3.45709000e-03
-5.72333000 3.47373000e-03
-5.69333000 3.49051000e-03
-5.66333000 3.50744000e-03
-5.63333000 3.52451000e-03
-5.60333000 3.54174000e-03
-5.57333000 3.55912000e-03
-5.54333000 3.57666000e-03
-5.51333000 3.59438000e-03
-5.48333000 3.61226000e-03
-5.45333000 3.63033000e-03
-5.42333000 3.64858000e-03
-5.39333000 3.66703000e-03
-5.36333000 3.68568000e-03
-5.33333000 3.70454000e-03
-5.30333000 3.72362000e-03
-5.27333000 3.74293000e-03
-5.24333000 3.76250000e-03
-5.21333000 3.78232000e-03
-5.18333000 3.80243000e-03
-5.15333000 3.82285000e-03
-5.12333000 3.84359000e-03
-5.09333000 3.86469000e-03
-5.06333000 3.88619000e-03
-5.01138000 3.92451000e-03
-4.98138000 3.94738000e-03
-4.95138000 3.97089000e-03
-4.92138000 3.99517000e-03
-4.89138000 4.02037000e-03
-4.86138000 4.04670000e-03
-4.83138000 4.07447000e-03
-4.80138000 4.10409000e-03
-4.77138000 4.13618000e-03
-4.74138000 4.17168000e-03
-4.71138000 4.21207000e-03
-4.68138000 4.25977000e-03
-4.65138000 4.31901000e-03
-4.62138000 4.39754000e-03
-4.59138000 4.51071000e-03
-4.56138000 4.69141000e-03
-4.53138000 5.01447000e-03
-4.50138000 5.63452000e-03
-4.47138000 6.56505000e-03
-4.44138000 6.63428000e-03
-4.41138000 5.75985000e-03
-4.38138000 5.16958000e-03
-4.35138000 4.88714000e-03
-4.32138000 4.75381000e-03
-4.29138000 4.69121000e-03
-4.26138000 4.66505000e-03
-4.23138000 4.65946000e-03
-4.17943000 4.67743000e-03
-4.14943000 4.69807000e-03
-4.11943000 4.72435000e-03
-4.08943000 4.75583000e-03
-4.05943000 4.79277000e-03
-4.02943000 4.83623000e-03
-3.99943000 4.88834000e-03
-3.96943000 4.95314000e-03
-3.93943000 5.03833000e-03
-3.90943000 5.15933000e-03
-3.87943000 5.34937000e-03
-3.84943000 5.68417000e-03
-3.81943000 6.31933000e-03
-3.78943000 7.25759000e-03
-3.75943000 7.31165000e-03
-3.72943000 6.44942000e-03
-3.69943000 5.88020000e-03
-3.66943000 5.61588000e-03
-3.63943000 5.49936000e-03
-3.60943000 5.45368000e-03
-3.57943000 5.44518000e-03
-3.54943000 5.45837000e-03
-3.51943000 5.48563000e-03
-3.48943000 5.52306000e-03
-3.45943000 5.56869000e-03
-3.42943000 5.62164000e-03
-3.39943000 5.68175000e-03
-3.34748000 5.80420000e-03
-3.31748000 5.88745000e-03
-3.28748000 5.98230000e-03
-3.25748000 6.09195000e-03
-3.22748000 6.22141000e-03
-3.19748000 6.37905000e-03
-3.16748000 6.57911000e-03
-3.13748000 6.83571000e-03
-3.10748000 7.12733000e-03
-3.07748000 7.48895000e-03
-3.04748000 8.04060000e-03
-3.01748000 8.90114000e-03
-2.98748000 1.01436000e-02
-2.95748000 1.21288000e-02
-2.92748000 1.60692000e-02
-2.89748000 2.33155000e-02
-2.86748000 2.90573000e-02
-2.83748000 2.45023000e-02
-2.80748000 1.81592000e-02
-2.77748000 1.49714000e-02
-2.74748000 1.38718000e-02
-2.71748000 1.43990000e-02
-2.68748000 1.68797000e-02
-2.65748000 2.22319000e-02
-2.62748000 3.00832000e-02
-2.59748000 3.45496000e-02
-2.56748000 3.61660000e-02
-2.51553000 3.78621000e-02
-2.48553000 2.83091000e-02
-2.45553000 1.93351000e-02
-2.42553000 1.45498000e-02
-2.39553000 1.20634000e-02
-2.36553000 1.06815000e-02
-2.33553000 9.86910000e-03
-2.30553000 9.38277000e-03
-2.27553000 9.10595000e-03
-2.24553000 8.97939000e-03
-2.21553000 9.00192000e-03
-2.18553000 9.24308000e-03
-2.15553000 9.81940000e-03
-2.12553000 1.03909000e-02
-2.09553000 1.00432000e-02
-2.06553000 9.54150000e-03
-2.03553000 9.40483000e-03
-2.00553000 9.60926000e-03
-1.97553000 1.02276000e-02
-1.94553000 1.15168000e-02
-1.91553000 1.30499000e-02
-1.88553000 1.24681000e-02
-1.85553000 1.10288000e-02
-1.82553000 1.02693000e-02
-1.79553000 9.98412000e-03
-1.76553000 9.93867000e-03
-1.73553000 1.00310000e-02
-1.68358000 1.04264000e-02
-1.65358000 1.07850000e-02
-1.62358000 1.12311000e-02
-1.59358000 1.18053000e-02
-1.56358000 1.26022000e-02
-1.53358000 1.37726000e-02
-1.50358000 1.55917000e-02
-1.47358000 1.86535000e-02
-1.44358000 2.42279000e-02
-1.41358000 3.39426000e-02
-1.38358000 4.51032000e-02
-1.35358000 4.50400000e-02
-1.32358000 3.82916000e-02
-1.29358000 3.95286000e-02
-1.26358000 5.18249000e-02
-1.23358000 6.86221000e-02
-1.20358000 6.09980000e-02
-1.17358000 4.39389000e-02
-1.14358000 3.65082000e-02
-1.11358000 3.80334000e-02
-1.08358000 4.82929000e-02
-1.05358000 5.85164000e-02
-1.02358000 5.10471000e-02
-0.99358100 4.08337000e-02
-0.96358100 3.16377000e-02
-0.93358100 2.52809000e-02
-0.90358100 2.23640000e-02
-0.85163100 2.13381000e-02
-0.82163100 2.14220000e-02
-0.79163100 2.14097000e-02
-0.76163100 2.12187000e-02
-0.73163100 2.02443000e-02
-0.70163100 1.89185000e-02
-0.67163100 1.84647000e-02
-0.64163100 1.87455000e-02
-0.61163100 1.96039000e-02
-0.58163100 2.12635000e-02
-0.55163100 2.42963000e-02
-0.52163100 3.00391000e-02
-0.49163100 4.09612000e-02
-0.46163100 5.50493000e-02
-0.43163100 5.60117000e-02
-0.40163100 4.74650000e-02
-0.37163100 3.91176000e-02
-0.34163100 3.40322000e-02
-0.31163100 3.12784000e-02
-0.28163100 3.12494000e-02
-0.25163100 3.33092000e-02
-0.22163100 3.38612000e-02
-0.19163100 3.46580000e-02
-0.16163100 3.54886000e-02
-0.13163100 3.49536000e-02
-0.10163100 3.53377000e-02
-0.07163070 3.74014000e-02
-0.01968040 4.73285000e-02
0.01031960 5.80798000e-02
0.04031960 6.73717000e-02
0.07031960 7.11549000e-02
0.10032000 8.01074000e-02
0.13032000 1.00118000e-01
0.16032000 1.37340000e-01
0.19032000 2.00722000e-01
0.22032000 2.69748000e-01
0.25032000 3.46670000e-01
0.28032000 3.38493000e-01
0.31032000 2.79041000e-01
0.34032000 2.86468000e-01
0.37032000 3.60122000e-01
0.40032000 4.61856000e-01
0.43032000 4.29546000e-01
0.46032000 2.99252000e-01
0.49032000 1.96875000e-01
0.52032000 1.38940000e-01
0.55032000 1.13020000e-01
0.58032000 1.05926000e-01
0.61032000 1.05424000e-01
0.64032000 1.05367000e-01
0.67032000 1.01799000e-01
0.70032000 9.14868000e-02
0.73032000 8.13000000e-02
0.76032000 7.39519000e-02
