# E(MeV)  S_GAMTGAMT(K=1) for Os203_DDPCX
-7.51704000 2.04233000e-03
-7.48704000 2.05017000e-03
-7.45704000 2.05806000e-03
-7.42704000 2.06599000e-03
-7.39704000 2.07396000e-03
-7.36704000 2.08197000e-03
-7.33704000 2.09003000e-03
-7.30704000 2.09812000e-03
-7.27704000 2.10626000e-03
-7.24704000 2.11444000e-03
-7.21704000 2.12267000e-03
-7.18704000 2.13093000e-03
-7.15704000 2.13925000e-03
-7.12704000 2.14761000e-03
-7.09704000 2.15601000e-03
-7.06704000 2.16446000e-03
-7.03704000 2.17296000e-03
-7.00704000 2.18150000e-03
-6.97704000 2.19010000e-03
-6.94704000 2.19874000e-03
-6.91704000 2.20743000e-03
-6.88704000 2.21617000e-03
-6.85704000 2.22496000e-03
-6.82704000 2.23379000e-03
-6.79704000 2.24268000e-03
-6.76704000 2.25163000e-03
-6.73704000 2.26062000e-03
-6.68411000 2.27662000e-03
-6.65411000 2.28576000e-03
-6.62411000 2.29496000e-03
-6.59411000 2.30421000e-03
-6.56411000 2.31351000e-03
-6.53411000 2.32287000e-03
-6.50411000 2.33229000e-03
-6.47411000 2.34177000e-03
-6.44411000 2.35130000e-03
-6.41411000 2.36090000e-03
-6.38411000 2.37055000e-03
-6.35411000 2.38026000e-03
-6.32411000 2.39004000e-03
-6.29411000 2.39987000e-03
-6.26411000 2.40977000e-03
-6.23411000 2.41973000e-03
-6.20411000 2.42975000e-03
-6.17411000 2.43984000e-03
-6.14411000 2.44999000e-03
-6.11411000 2.46021000e-03
-6.08411000 2.47049000e-03
-6.05411000 2.48084000e-03
-6.02411000 2.49126000e-03
-5.99411000 2.50175000e-03
-5.96411000 2.51231000e-03
-5.93411000 2.52294000e-03
-5.90411000 2.53363000e-03
-5.85118000 2.55269000e-03
-5.82118000 2.56359000e-03
-5.79118000 2.57456000e-03
-5.76118000 2.58561000e-03
-5.73118000 2.59673000e-03
-5.70118000 2.60793000e-03
-5.67118000 2.61921000e-03
-5.64118000 2.63057000e-03
-5.61118000 2.64201000e-03
-5.58118000 2.65353000e-03
-5.55118000 2.66513000e-03
-5.52118000 2.67681000e-03
-5.49118000 2.68857000e-03
-5.46118000 2.70043000e-03
-5.43118000 2.71236000e-03
-5.40118000 2.72438000e-03
-5.37118000 2.73650000e-03
-5.34118000 2.74869000e-03
-5.31118000 2.76098000e-03
-5.28118000 2.77336000e-03
-5.25118000 2.78584000e-03
-5.22118000 2.79840000e-03
-5.19118000 2.81106000e-03
-5.16118000 2.82382000e-03
-5.13118000 2.83667000e-03
-5.10118000 2.84963000e-03
-5.07118000 2.86268000e-03
-5.01825000 2.88595000e-03
-4.98825000 2.89929000e-03
-4.95825000 2.91273000e-03
-4.92825000 2.92627000e-03
-4.89825000 2.93992000e-03
-4.86825000 2.95369000e-03
-4.83825000 2.96756000e-03
-4.80825000 2.98154000e-03
-4.77825000 2.99564000e-03
-4.74825000 3.00986000e-03
-4.71825000 3.02419000e-03
-4.68825000 3.03864000e-03
-4.65825000 3.05321000e-03
-4.62825000 3.06790000e-03
-4.59825000 3.08272000e-03
-4.56825000 3.09766000e-03
-4.53825000 3.11274000e-03
-4.50825000 3.12794000e-03
-4.47825000 3.14327000e-03
-4.44825000 3.15874000e-03
-4.41825000 3.17435000e-03
-4.38825000 3.19009000e-03
-4.35825000 3.20598000e-03
-4.32825000 3.22201000e-03
-4.29825000 3.23819000e-03
-4.26825000 3.25452000e-03
-4.23825000 3.27100000e-03
-4.18532000 3.30046000e-03
-4.15532000 3.31738000e-03
-4.12532000 3.33447000e-03
-4.09532000 3.35172000e-03
-4.06532000 3.36915000e-03
-4.03532000 3.38675000e-03
-4.00532000 3.40454000e-03
-3.97532000 3.42252000e-03
-3.94532000 3.44069000e-03
-3.91532000 3.45906000e-03
-3.88532000 3.47764000e-03
-3.85532000 3.49644000e-03
-3.82532000 3.51546000e-03
-3.79532000 3.53473000e-03
-3.76532000 3.55424000e-03
-3.73532000 3.57402000e-03
-3.70532000 3.59408000e-03
-3.67532000 3.61445000e-03
-3.64532000 3.63516000e-03
-3.61532000 3.65624000e-03
-3.58532000 3.67774000e-03
-3.55532000 3.69971000e-03
-3.52532000 3.72223000e-03
-3.49532000 3.74541000e-03
-3.46532000 3.76939000e-03
-3.43532000 3.79438000e-03
-3.40532000 3.82069000e-03
-3.35239000 3.87184000e-03
-3.32239000 3.90505000e-03
-3.29239000 3.94336000e-03
-3.26239000 3.98999000e-03
-3.23239000 4.05112000e-03
-3.20239000 4.13973000e-03
-3.17239000 4.28497000e-03
-3.14239000 4.55137000e-03
-3.11239000 5.00702000e-03
-3.08239000 5.26771000e-03
-3.05239000 4.89615000e-03
-3.02239000 4.54898000e-03
-2.99239000 4.38175000e-03
-2.96239000 4.30909000e-03
-2.93239000 4.28064000e-03
-2.90239000 4.27429000e-03
-2.87239000 4.27997000e-03
-2.84239000 4.29278000e-03
-2.81239000 4.31012000e-03
-2.78239000 4.33051000e-03
-2.75239000 4.35311000e-03
-2.72239000 4.37738000e-03
-2.69239000 4.40299000e-03
-2.66239000 4.42973000e-03
-2.63239000 4.45740000e-03
-2.60239000 4.48587000e-03
-2.57239000 4.51517000e-03
-2.51945000 4.56889000e-03
-2.48945000 4.60058000e-03
-2.45945000 4.63322000e-03
-2.42945000 4.66623000e-03
-2.39945000 4.69941000e-03
-2.36945000 4.73359000e-03
-2.33945000 4.76889000e-03
-2.30945000 4.80530000e-03
-2.27945000 4.84289000e-03
-2.24945000 4.88180000e-03
-2.21945000 4.92224000e-03
-2.18945000 4.96452000e-03
-2.15945000 5.00911000e-03
-2.12945000 5.05676000e-03
-2.09945000 5.10874000e-03
-2.06945000 5.16743000e-03
-2.03945000 5.23768000e-03
-2.00945000 5.33004000e-03
-1.97945000 5.46366000e-03
-1.94945000 5.62047000e-03
-1.91945000 5.66145000e-03
-1.88945000 5.65545000e-03
-1.85945000 5.70895000e-03
-1.82945000 5.82407000e-03
-1.79945000 6.01141000e-03
-1.76945000 6.31337000e-03
-1.73945000 6.80517000e-03
-1.68652000 8.81410000e-03
-1.65652000 1.04858000e-02
-1.62652000 1.00286000e-02
-1.59652000 8.88662000e-03
-1.56652000 8.51640000e-03
-1.53652000 7.88868000e-03
-1.50652000 7.15933000e-03
-1.47652000 6.76038000e-03
-1.44652000 6.57458000e-03
-1.41652000 6.49579000e-03
-1.38652000 6.47399000e-03
-1.35652000 6.48600000e-03
-1.32652000 6.52056000e-03
-1.29652000 6.57228000e-03
-1.26652000 6.63919000e-03
-1.23652000 6.72226000e-03
-1.20652000 6.82664000e-03
-1.17652000 6.96361000e-03
-1.14652000 7.13296000e-03
-1.11652000 7.27663000e-03
-1.08652000 7.39050000e-03
-1.05652000 7.49416000e-03
-1.02652000 7.64621000e-03
-0.99652400 7.86570000e-03
-0.96652400 8.15547000e-03
-0.93652400 8.52590000e-03
-0.90652400 9.03792000e-03
-0.85359200 1.06313000e-02
-0.82359200 1.22841000e-02
-0.79359200 1.50760000e-02
-0.76359200 2.04769000e-02
-0.73359200 3.08664000e-02
-0.70359200 4.24368000e-02
-0.67359200 3.72783000e-02
-0.64359200 2.53172000e-02
-0.61359200 1.79996000e-02
-0.58359200 1.43818000e-02
-0.55359200 1.27113000e-02
-0.52359200 1.18435000e-02
-0.49359200 1.09879000e-02
-0.46359200 1.03462000e-02
-0.43359200 9.93645000e-03
-0.40359200 9.69998000e-03
-0.37359200 9.57726000e-03
-0.34359200 9.52478000e-03
-0.31359200 9.51848000e-03
-0.28359200 9.54479000e-03
-0.25359200 9.59552000e-03
-0.22359200 9.66547000e-03
-0.19359200 9.75122000e-03
-0.16359200 9.85053000e-03
-0.13359200 9.96195000e-03
-0.10359200 1.00847000e-02
-0.07359230 1.02187000e-02
-0.02066120 1.04860000e-02
0.00933883 1.06619000e-02
0.03933880 1.08682000e-02
0.06933880 1.11054000e-02
0.09933880 1.12919000e-02
0.12933900 1.14233000e-02
0.15933900 1.15749000e-02
0.18933900 1.17568000e-02
0.21933900 1.19632000e-02
0.24933900 1.21882000e-02
0.27933900 1.24240000e-02
0.30933900 1.26693000e-02
0.33933900 1.29310000e-02
0.36933900 1.32097000e-02
0.39933900 1.34978000e-02
0.42933900 1.37962000e-02
0.45933900 1.41132000e-02
0.48933900 1.44500000e-02
0.51933900 1.48065000e-02
0.54933900 1.51809000e-02
0.57933900 1.55758000e-02
0.60933900 1.59948000e-02
0.63933900 1.64395000e-02
0.66933900 1.69118000e-02
0.69933900 1.74140000e-02
0.72933900 1.79488000e-02
0.75933900 1.85193000e-02
