# E(MeV)  S_GAMTGAMT(Total=K0+2*K1) for Os203_DDPCX
-7.51704000 6.14500000e-03
-7.48704000 6.16868000e-03
-7.45704000 6.19249000e-03
-7.42704000 6.21643000e-03
-7.39704000 6.24049000e-03
-7.36704000 6.26468000e-03
-7.33704000 6.28900000e-03
-7.30704000 6.31343000e-03
-7.27704000 6.33801000e-03
-7.24704000 6.36271000e-03
-7.21704000 6.38756000e-03
-7.18704000 6.41251000e-03
-7.15704000 6.43762000e-03
-7.12704000 6.46287000e-03
-7.09704000 6.48824000e-03
-7.06704000 6.51376000e-03
-7.03704000 6.53943000e-03
-7.00704000 6.56523000e-03
-6.97704000 6.59120000e-03
-6.94704000 6.61729000e-03
-6.91704000 6.64354000e-03
-6.88704000 6.66994000e-03
-6.85704000 6.69649000e-03
-6.82704000 6.72318000e-03
-6.79704000 6.75004000e-03
-6.76704000 6.77707000e-03
-6.73704000 6.80423000e-03
-6.68411000 6.85257000e-03
-6.65411000 6.88019000e-03
-6.62411000 6.90799000e-03
-6.59411000 6.93594000e-03
-6.56411000 6.96405000e-03
-6.53411000 6.99234000e-03
-6.50411000 7.02081000e-03
-6.47411000 7.04946000e-03
-6.44411000 7.07827000e-03
-6.41411000 7.10728000e-03
-6.38411000 7.13645000e-03
-6.35411000 7.16581000e-03
-6.32411000 7.19536000e-03
-6.29411000 7.22509000e-03
-6.26411000 7.25501000e-03
-6.23411000 7.28513000e-03
-6.20411000 7.31543000e-03
-6.17411000 7.34593000e-03
-6.14411000 7.37663000e-03
-6.11411000 7.40753000e-03
-6.08411000 7.43862000e-03
-6.05411000 7.46992000e-03
-6.02411000 7.50144000e-03
-5.99411000 7.53316000e-03
-5.96411000 7.56510000e-03
-5.93411000 7.59725000e-03
-5.90411000 7.62959000e-03
-5.85118000 7.68724000e-03
-5.82118000 7.72022000e-03
-5.79118000 7.75341000e-03
-5.76118000 7.78685000e-03
-5.73118000 7.82050000e-03
-5.70118000 7.85439000e-03
-5.67118000 7.88852000e-03
-5.64118000 7.92290000e-03
-5.61118000 7.95752000e-03
-5.58118000 7.99238000e-03
-5.55118000 8.02749000e-03
-5.52118000 8.06284000e-03
-5.49118000 8.09845000e-03
-5.46118000 8.13434000e-03
-5.43118000 8.17046000e-03
-5.40118000 8.20685000e-03
-5.37118000 8.24354000e-03
-5.34118000 8.28046000e-03
-5.31118000 8.31767000e-03
-5.28118000 8.35516000e-03
-5.25118000 8.39294000e-03
-5.22118000 8.43098000e-03
-5.19118000 8.46932000e-03
-5.16118000 8.50796000e-03
-5.13118000 8.54689000e-03
-5.10118000 8.58613000e-03
-5.07118000 8.62567000e-03
-5.01825000 8.69616000e-03
-4.98825000 8.73657000e-03
-4.95825000 8.77728000e-03
-4.92825000 8.81831000e-03
-4.89825000 8.85967000e-03
-4.86825000 8.90139000e-03
-4.83825000 8.94342000e-03
-4.80825000 8.98578000e-03
-4.77825000 9.02851000e-03
-4.74825000 9.07160000e-03
-4.71825000 9.11503000e-03
-4.68825000 9.15882000e-03
-4.65825000 9.20298000e-03
-4.62825000 9.24750000e-03
-4.59825000 9.29242000e-03
-4.56825000 9.33770000e-03
-4.53825000 9.38340000e-03
-4.50825000 9.42948000e-03
-4.47825000 9.47595000e-03
-4.44825000 9.52284000e-03
-4.41825000 9.57015000e-03
-4.38825000 9.61786000e-03
-4.35825000 9.66602000e-03
-4.32825000 9.71461000e-03
-4.29825000 9.76364000e-03
-4.26825000 9.81313000e-03
-4.23825000 9.86307000e-03
-4.18532000 9.95234000e-03
-4.15532000 1.00036000e-02
-4.12532000 1.00553600e-02
-4.09532000 1.01076100e-02
-4.06532000 1.01603900e-02
-4.03532000 1.02136800e-02
-4.00532000 1.02675200e-02
-3.97532000 1.03219200e-02
-3.94532000 1.03768800e-02
-3.91532000 1.04324200e-02
-3.88532000 1.04885700e-02
-3.85532000 1.05453500e-02
-3.82532000 1.06027600e-02
-3.79532000 1.06608700e-02
-3.76532000 1.07196600e-02
-3.73532000 1.07791900e-02
-3.70532000 1.08394800e-02
-3.67532000 1.09006100e-02
-3.64532000 1.09626300e-02
-3.61532000 1.10256100e-02
-3.58532000 1.10896500e-02
-3.55532000 1.11548500e-02
-3.52532000 1.12213900e-02
-3.49532000 1.12894800e-02
-3.46532000 1.13594200e-02
-3.43532000 1.14316100e-02
-3.40532000 1.15067000e-02
-3.35239000 1.16492600e-02
-3.32239000 1.17388600e-02
-3.29239000 1.18389400e-02
-3.26239000 1.19559300e-02
-3.23239000 1.21022000e-02
-3.20239000 1.23037200e-02
-3.17239000 1.26187900e-02
-3.14239000 1.31764900e-02
-3.11239000 1.41129900e-02
-3.08239000 1.46598900e-02
-3.05239000 1.39426200e-02
-3.02239000 1.32744600e-02
-2.99239000 1.29665300e-02
-2.96239000 1.28480800e-02
-2.93239000 1.28184200e-02
-2.90239000 1.28333400e-02
-2.87239000 1.28726900e-02
-2.84239000 1.29267100e-02
-2.81239000 1.29901900e-02
-2.78239000 1.30602000e-02
-2.75239000 1.31350800e-02
-2.72239000 1.32137500e-02
-2.69239000 1.32955900e-02
-2.66239000 1.33801900e-02
-2.63239000 1.34671600e-02
-2.60239000 1.35562300e-02
-2.57239000 1.36475500e-02
-2.51945000 1.38142500e-02
-2.48945000 1.39121500e-02
-2.45945000 1.40126800e-02
-2.42945000 1.41147400e-02
-2.39945000 1.42180000e-02
-2.36945000 1.43242200e-02
-2.33945000 1.44337500e-02
-2.30945000 1.45467100e-02
-2.27945000 1.46634200e-02
-2.24945000 1.47844300e-02
-2.21945000 1.49104900e-02
-2.18945000 1.50427500e-02
-2.15945000 1.51829300e-02
-2.12945000 1.53338000e-02
-2.09945000 1.55001400e-02
-2.06945000 1.56909900e-02
-2.03945000 1.59250800e-02
-2.00945000 1.62431700e-02
-1.97945000 1.67129900e-02
-1.94945000 1.72229200e-02
-1.91945000 1.72965600e-02
-1.88945000 1.72624200e-02
-1.85945000 1.74433500e-02
-1.82945000 1.78397200e-02
-1.79945000 1.84977700e-02
-1.76945000 1.95900100e-02
-1.73945000 2.14821400e-02
-1.68652000 2.91106000e-02
-1.65652000 3.29602000e-02
-1.62652000 3.00782000e-02
-1.59652000 2.66544600e-02
-1.56652000 2.56645700e-02
-1.53652000 2.38446900e-02
-1.50652000 2.16739800e-02
-1.47652000 2.04781100e-02
-1.44652000 1.99172800e-02
-1.41652000 1.96755800e-02
-1.38652000 1.96038900e-02
-1.35652000 1.96329700e-02
-1.32652000 1.97291200e-02
-1.29652000 1.98762100e-02
-1.26652000 2.00687900e-02
-1.23652000 2.03113400e-02
-1.20652000 2.06234700e-02
-1.17652000 2.10433200e-02
-1.14652000 2.15281400e-02
-1.11652000 2.18421000e-02
-1.08652000 2.20804400e-02
-1.05652000 2.23436200e-02
-1.02652000 2.27359800e-02
-0.99652400 2.32867600e-02
-0.96652400 2.39949100e-02
-0.93652400 2.48775600e-02
-0.90652400 2.60692600e-02
-0.85359200 2.96499200e-02
-0.82359200 3.32659800e-02
-0.79359200 3.92694900e-02
-0.76359200 5.06704300e-02
-0.73359200 7.23423000e-02
-0.70359200 9.68930000e-02
-0.67359200 8.88807000e-02
-0.64359200 6.93301000e-02
-0.61359200 6.24445000e-02
-0.58359200 6.10299000e-02
-0.55359200 5.12530000e-02
-0.52359200 4.19665000e-02
-0.49359200 3.62899000e-02
-0.46359200 3.30581000e-02
-0.43359200 3.12308000e-02
-0.40359200 3.02137600e-02
-0.37359200 2.96730200e-02
-0.34359200 2.94174600e-02
-0.31359200 2.93443600e-02
-0.28359200 2.93961800e-02
-0.25359200 2.95386400e-02
-0.22359200 2.97502400e-02
-0.19359200 3.00172400e-02
-0.16359200 3.03306600e-02
-0.13359200 3.06844000e-02
-0.10359200 3.10751000e-02
-0.07359230 3.15012000e-02
-0.02066120 3.23440000e-02
0.00933883 3.28868000e-02
0.03933880 3.35027000e-02
0.06933880 3.41940000e-02
0.09933880 3.47964000e-02
0.12933900 3.52925000e-02
0.15933900 3.58377000e-02
0.18933900 3.64592000e-02
0.21933900 3.71454000e-02
0.24933900 3.78850000e-02
0.27933900 3.86644000e-02
0.30933900 3.94849000e-02
0.33933900 4.03659000e-02
0.36933900 4.12948000e-02
0.39933900 4.22244000e-02
0.42933900 4.31909000e-02
0.45933900 4.42278000e-02
0.48933900 4.53346000e-02
0.51933900 4.65098000e-02
0.54933900 4.77505000e-02
0.57933900 4.90638000e-02
0.60933900 5.04592000e-02
0.63933900 5.19429000e-02
0.66933900 5.35222000e-02
0.69933900 5.52054000e-02
0.72933900 5.70024000e-02
0.75933900 5.89244000e-02
