# E(MeV)  S_GAMTGAMT(K=0) for Os203_DDPCX
-7.51704000 2.06034000e-03
-7.48704000 2.06834000e-03
-7.45704000 2.07637000e-03
-7.42704000 2.08445000e-03
-7.39704000 2.09257000e-03
-7.36704000 2.10074000e-03
-7.33704000 2.10894000e-03
-7.30704000 2.11719000e-03
-7.27704000 2.12549000e-03
-7.24704000 2.13383000e-03
-7.21704000 2.14222000e-03
-7.18704000 2.15065000e-03
-7.15704000 2.15912000e-03
-7.12704000 2.16765000e-03
-7.09704000 2.17622000e-03
-7.06704000 2.18484000e-03
-7.03704000 2.19351000e-03
-7.00704000 2.20223000e-03
-6.97704000 2.21100000e-03
-6.94704000 2.21981000e-03
-6.91704000 2.22868000e-03
-6.88704000 2.23760000e-03
-6.85704000 2.24657000e-03
-6.82704000 2.25560000e-03
-6.79704000 2.26468000e-03
-6.76704000 2.27381000e-03
-6.73704000 2.28299000e-03
-6.68411000 2.29933000e-03
-6.65411000 2.30867000e-03
-6.62411000 2.31807000e-03
-6.59411000 2.32752000e-03
-6.56411000 2.33703000e-03
-6.53411000 2.34660000e-03
-6.50411000 2.35623000e-03
-6.47411000 2.36592000e-03
-6.44411000 2.37567000e-03
-6.41411000 2.38548000e-03
-6.38411000 2.39535000e-03
-6.35411000 2.40529000e-03
-6.32411000 2.41528000e-03
-6.29411000 2.42535000e-03
-6.26411000 2.43547000e-03
-6.23411000 2.44567000e-03
-6.20411000 2.45593000e-03
-6.17411000 2.46625000e-03
-6.14411000 2.47665000e-03
-6.11411000 2.48711000e-03
-6.08411000 2.49764000e-03
-6.05411000 2.50824000e-03
-6.02411000 2.51892000e-03
-5.99411000 2.52966000e-03
-5.96411000 2.54048000e-03
-5.93411000 2.55137000e-03
-5.90411000 2.56233000e-03
-5.85118000 2.58186000e-03
-5.82118000 2.59304000e-03
-5.79118000 2.60429000e-03
-5.76118000 2.61563000e-03
-5.73118000 2.62704000e-03
-5.70118000 2.63853000e-03
-5.67118000 2.65010000e-03
-5.64118000 2.66176000e-03
-5.61118000 2.67350000e-03
-5.58118000 2.68532000e-03
-5.55118000 2.69723000e-03
-5.52118000 2.70922000e-03
-5.49118000 2.72131000e-03
-5.46118000 2.73348000e-03
-5.43118000 2.74574000e-03
-5.40118000 2.75809000e-03
-5.37118000 2.77054000e-03
-5.34118000 2.78308000e-03
-5.31118000 2.79571000e-03
-5.28118000 2.80844000e-03
-5.25118000 2.82126000e-03
-5.22118000 2.83418000e-03
-5.19118000 2.84720000e-03
-5.16118000 2.86032000e-03
-5.13118000 2.87355000e-03
-5.10118000 2.88687000e-03
-5.07118000 2.90031000e-03
-5.01825000 2.92426000e-03
-4.98825000 2.93799000e-03
-4.95825000 2.95182000e-03
-4.92825000 2.96577000e-03
-4.89825000 2.97983000e-03
-4.86825000 2.99401000e-03
-4.83825000 3.00830000e-03
-4.80825000 3.02270000e-03
-4.77825000 3.03723000e-03
-4.74825000 3.05188000e-03
-4.71825000 3.06665000e-03
-4.68825000 3.08154000e-03
-4.65825000 3.09656000e-03
-4.62825000 3.11170000e-03
-4.59825000 3.12698000e-03
-4.56825000 3.14238000e-03
-4.53825000 3.15792000e-03
-4.50825000 3.17360000e-03
-4.47825000 3.18941000e-03
-4.44825000 3.20536000e-03
-4.41825000 3.22145000e-03
-4.38825000 3.23768000e-03
-4.35825000 3.25406000e-03
-4.32825000 3.27059000e-03
-4.29825000 3.28726000e-03
-4.26825000 3.30409000e-03
-4.23825000 3.32107000e-03
-4.18532000 3.35142000e-03
-4.15532000 3.36884000e-03
-4.12532000 3.38642000e-03
-4.09532000 3.40417000e-03
-4.06532000 3.42209000e-03
-4.03532000 3.44018000e-03
-4.00532000 3.45844000e-03
-3.97532000 3.47688000e-03
-3.94532000 3.49550000e-03
-3.91532000 3.51430000e-03
-3.88532000 3.53329000e-03
-3.85532000 3.55247000e-03
-3.82532000 3.57184000e-03
-3.79532000 3.59141000e-03
-3.76532000 3.61118000e-03
-3.73532000 3.63115000e-03
-3.70532000 3.65132000e-03
-3.67532000 3.67171000e-03
-3.64532000 3.69231000e-03
-3.61532000 3.71313000e-03
-3.58532000 3.73417000e-03
-3.55532000 3.75543000e-03
-3.52532000 3.77693000e-03
-3.49532000 3.79866000e-03
-3.46532000 3.82064000e-03
-3.43532000 3.84285000e-03
-3.40532000 3.86532000e-03
-3.35239000 3.90558000e-03
-3.32239000 3.92876000e-03
-3.29239000 3.95222000e-03
-3.26239000 3.97595000e-03
-3.23239000 3.99996000e-03
-3.20239000 4.02426000e-03
-3.17239000 4.04885000e-03
-3.14239000 4.07375000e-03
-3.11239000 4.09895000e-03
-3.08239000 4.12447000e-03
-3.05239000 4.15032000e-03
-3.02239000 4.17650000e-03
-2.99239000 4.20303000e-03
-2.96239000 4.22990000e-03
-2.93239000 4.25714000e-03
-2.90239000 4.28476000e-03
-2.87239000 4.31275000e-03
-2.84239000 4.34115000e-03
-2.81239000 4.36995000e-03
-2.78239000 4.39918000e-03
-2.75239000 4.42886000e-03
-2.72239000 4.45899000e-03
-2.69239000 4.48961000e-03
-2.66239000 4.52073000e-03
-2.63239000 4.55236000e-03
-2.60239000 4.58449000e-03
-2.57239000 4.61721000e-03
-2.51945000 4.67647000e-03
-2.48945000 4.71099000e-03
-2.45945000 4.74624000e-03
-2.42945000 4.78228000e-03
-2.39945000 4.81918000e-03
-2.36945000 4.85704000e-03
-2.33945000 4.89597000e-03
-2.30945000 4.93611000e-03
-2.27945000 4.97764000e-03
-2.24945000 5.02083000e-03
-2.21945000 5.06601000e-03
-2.18945000 5.11371000e-03
-2.15945000 5.16471000e-03
-2.12945000 5.22028000e-03
-2.09945000 5.28266000e-03
-2.06945000 5.35613000e-03
-2.03945000 5.44972000e-03
-2.00945000 5.58309000e-03
-1.97945000 5.78567000e-03
-1.94945000 5.98198000e-03
-1.91945000 5.97366000e-03
-1.88945000 5.95152000e-03
-1.85945000 6.02545000e-03
-1.82945000 6.19158000e-03
-1.79945000 6.47495000e-03
-1.76945000 6.96327000e-03
-1.73945000 7.87180000e-03
-1.68652000 1.14824000e-02
-1.65652000 1.19886000e-02
-1.62652000 1.00210000e-02
-1.59652000 8.88122000e-03
-1.56652000 8.63177000e-03
-1.53652000 8.06733000e-03
-1.50652000 7.35532000e-03
-1.47652000 6.95735000e-03
-1.44652000 6.76812000e-03
-1.41652000 6.68400000e-03
-1.38652000 6.65591000e-03
-1.35652000 6.66097000e-03
-1.32652000 6.68800000e-03
-1.29652000 6.73165000e-03
-1.26652000 6.79041000e-03
-1.23652000 6.86682000e-03
-1.20652000 6.97019000e-03
-1.17652000 7.11610000e-03
-1.14652000 7.26222000e-03
-1.11652000 7.28884000e-03
-1.08652000 7.29944000e-03
-1.05652000 7.35530000e-03
-1.02652000 7.44356000e-03
-0.99652400 7.55536000e-03
-0.96652400 7.68397000e-03
-0.93652400 7.82576000e-03
-0.90652400 7.99342000e-03
-0.85359200 8.38732000e-03
-0.82359200 8.69778000e-03
-0.79359200 9.11749000e-03
-0.76359200 9.71663000e-03
-0.73359200 1.06095000e-02
-0.70359200 1.20194000e-02
-0.67359200 1.43241000e-02
-0.64359200 1.86957000e-02
-0.61359200 2.64453000e-02
-0.58359200 3.22663000e-02
-0.55359200 2.58304000e-02
-0.52359200 1.82795000e-02
-0.49359200 1.43141000e-02
-0.46359200 1.23657000e-02
-0.43359200 1.13579000e-02
-0.40359200 1.08138000e-02
-0.37359200 1.05185000e-02
-0.34359200 1.03679000e-02
-0.31359200 1.03074000e-02
-0.28359200 1.03066000e-02
-0.25359200 1.03476000e-02
-0.22359200 1.04193000e-02
-0.19359200 1.05148000e-02
-0.16359200 1.06296000e-02
-0.13359200 1.07605000e-02
-0.10359200 1.09057000e-02
-0.07359230 1.10638000e-02
-0.02066120 1.13720000e-02
0.00933883 1.15630000e-02
0.03933880 1.17663000e-02
0.06933880 1.19832000e-02
0.09933880 1.22126000e-02
0.12933900 1.24459000e-02
0.15933900 1.26879000e-02
0.18933900 1.29456000e-02
0.21933900 1.32190000e-02
0.24933900 1.35086000e-02
0.27933900 1.38164000e-02
0.30933900 1.41463000e-02
0.33933900 1.45039000e-02
0.36933900 1.48754000e-02
0.39933900 1.52288000e-02
0.42933900 1.55985000e-02
0.45933900 1.60014000e-02
0.48933900 1.64346000e-02
0.51933900 1.68968000e-02
0.54933900 1.73887000e-02
0.57933900 1.79122000e-02
0.60933900 1.84696000e-02
0.63933900 1.90639000e-02
0.66933900 1.96986000e-02
0.69933900 2.03774000e-02
0.72933900 2.11048000e-02
0.75933900 2.18858000e-02
