# E(MeV)  S_GAMTGAMT(Total=K0+2*K1) for Pr153_DDPCX
-5.74842000 7.56747000e-03
-5.71842000 7.62868000e-03
-5.68842000 7.69040000e-03
-5.65842000 7.75269000e-03
-5.62842000 7.81562000e-03
-5.59842000 7.87923000e-03
-5.56842000 7.94357000e-03
-5.53842000 8.00872000e-03
-5.50842000 8.07470000e-03
-5.47842000 8.14161000e-03
-5.44842000 8.20948000e-03
-5.41842000 8.27837000e-03
-5.38842000 8.34837000e-03
-5.35842000 8.41953000e-03
-5.32842000 8.49191000e-03
-5.29842000 8.56559000e-03
-5.26842000 8.64062000e-03
-5.23842000 8.71713000e-03
-5.20842000 8.79518000e-03
-5.17842000 8.87485000e-03
-5.14842000 8.95623000e-03
-5.09235000 9.11330000e-03
-5.06235000 9.20023000e-03
-5.03235000 9.28931000e-03
-5.00235000 9.38069000e-03
-4.97235000 9.47455000e-03
-4.94235000 9.57100000e-03
-4.91235000 9.67029000e-03
-4.88235000 9.77261000e-03
-4.85235000 9.87823000e-03
-4.82235000 9.98745000e-03
-4.79235000 1.01006700e-02
-4.76235000 1.02183800e-02
-4.73235000 1.03414000e-02
-4.70235000 1.04709000e-02
-4.67235000 1.06090700e-02
-4.64235000 1.07603900e-02
-4.61235000 1.09345400e-02
-4.58235000 1.11481000e-02
-4.55235000 1.13755200e-02
-4.52235000 1.14926800e-02
-4.49235000 1.15768000e-02
-4.43628000 1.18443200e-02
-4.40628000 1.20259400e-02
-4.37628000 1.22269800e-02
-4.34628000 1.24483700e-02
-4.31628000 1.26954600e-02
-4.28628000 1.29814600e-02
-4.25628000 1.33334800e-02
-4.22628000 1.37580900e-02
-4.19628000 1.40638200e-02
-4.16628000 1.42268900e-02
-4.13628000 1.44618900e-02
-4.10628000 1.47796000e-02
-4.07628000 1.51573200e-02
-4.04628000 1.55868700e-02
-4.01628000 1.60688400e-02
-3.98628000 1.66085300e-02
-3.95628000 1.72145400e-02
-3.92628000 1.78986700e-02
-3.89628000 1.86763200e-02
-3.86628000 1.95676900e-02
-3.83628000 2.05992200e-02
-3.78021000 2.30334800e-02
-3.75021000 2.47093400e-02
-3.72021000 2.67524400e-02
-3.69021000 2.92911000e-02
-3.66021000 3.25171000e-02
-3.63021000 3.67277600e-02
-3.60021000 4.24045000e-02
-3.57021000 5.03686200e-02
-3.54021000 6.21110600e-02
-3.51021000 8.05409000e-02
-3.48021000 1.11794980e-01
-3.45021000 1.69437620e-01
-3.42021000 2.78338240e-01
-3.39021000 4.38912860e-01
-3.36021000 5.39767400e-01
-3.33021000 4.13053600e-01
-3.30021000 2.56177600e-01
-3.27021000 1.76628000e-01
-3.24021000 1.45089600e-01
-3.21021000 1.41491500e-01
-3.18021000 1.61961100e-01
-3.12414000 3.11100400e-01
-3.09414000 5.02598000e-01
-3.06414000 7.34369000e-01
-3.03414000 7.52452000e-01
-3.00414000 4.99642000e-01
-2.97414000 2.93216800e-01
-2.94414000 1.83771100e-01
-2.91414000 1.26740000e-01
-2.88414000 9.48175000e-02
-2.85414000 7.56716000e-02
-2.82414000 6.36733000e-02
-2.79414000 5.61392000e-02
-2.76414000 5.18579000e-02
-2.73414000 5.06146000e-02
-2.70414000 5.33614000e-02
-2.67414000 6.29915000e-02
-2.64414000 8.20031000e-02
-2.61414000 8.95094000e-02
-2.58414000 6.90403000e-02
-2.55414000 5.19625000e-02
-2.52414000 4.38913000e-02
-2.46808000 4.19550000e-02
-2.43808000 3.97513000e-02
-2.40808000 3.50116600e-02
-2.37808000 3.19534500e-02
-2.34808000 3.03331600e-02
-2.31808000 2.94773700e-02
-2.28808000 2.90553200e-02
-2.25808000 2.89169300e-02
-2.22808000 2.89938500e-02
-2.19808000 2.92584400e-02
-2.16808000 2.97112100e-02
-2.13808000 3.03796400e-02
-2.10808000 3.13318200e-02
-2.07808000 3.27120300e-02
-2.04808000 3.48001000e-02
-2.01808000 3.77888000e-02
-1.98808000 4.09449800e-02
-1.95808000 4.54879000e-02
-1.92808000 5.47430000e-02
-1.89808000 7.10059000e-02
-1.86808000 8.62060000e-02
-1.81201000 7.47883000e-02
-1.78201000 7.01423000e-02
-1.75201000 7.17348000e-02
-1.72201000 6.58359000e-02
-1.69201000 5.91156000e-02
-1.66201000 5.71098700e-02
-1.63201000 5.85889600e-02
-1.60201000 6.27278900e-02
-1.57201000 6.97139800e-02
-1.54201000 8.06866200e-02
-1.51201000 9.82483900e-02
-1.48201000 1.28045210e-01
-1.45201000 1.82889750e-01
-1.42201000 2.91148410e-01
-1.39201000 4.81307300e-01
-1.36201000 5.81759600e-01
-1.33201000 4.16259700e-01
-1.30201000 2.64283000e-01
-1.27201000 1.80298400e-01
-1.24201000 1.36709500e-01
-1.21201000 1.15130900e-01
-1.15594000 1.01811400e-01
-1.12594000 1.02220800e-01
-1.09594000 1.06580500e-01
-1.06594000 1.09398800e-01
-1.03594000 1.15309600e-01
-1.00594000 1.25204900e-01
-0.97593700 1.28989050e-01
-0.94593700 1.34982490e-01
-0.91593700 1.51231430e-01
-0.88593700 1.74109380e-01
-0.85593700 1.93565450e-01
-0.82593700 2.27716720e-01
-0.79593700 3.00249370e-01
-0.76593700 4.21968430e-01
-0.73593700 4.79634790e-01
-0.70593700 4.02351880e-01
-0.67593700 3.50773560e-01
-0.64593700 3.51675730e-01
-0.61593700 3.90333240e-01
-0.58593700 4.65593400e-01
-0.55593700 5.91482700e-01
-0.49986800 1.11339920e+00
-0.46986800 1.77136140e+00
-0.43986800 2.85670560e+00
-0.40986800 3.32292440e+00
-0.37986800 2.63468670e+00
-0.34986800 2.31211160e+00
-0.31986800 2.66659480e+00
-0.28986800 3.88133890e+00
-0.25986800 6.54802170e+00
-0.22986800 9.93210620e+00
-0.19986800 8.80397040e+00
-0.16986800 5.15677350e+00
-0.13986800 2.95084620e+00
-0.10986800 1.83756040e+00
-0.07986820 1.23671500e+00
-0.04986820 8.87276500e-01
-0.01986820 6.69688300e-01
0.01013180 5.26037200e-01
0.04013180 4.26714100e-01
0.07013180 3.55560500e-01
0.10013200 3.03248300e-01
0.15620100 2.38017400e-01
0.18620100 2.15243400e-01
0.21620100 1.99136700e-01
0.24620100 1.89504900e-01
0.27620100 1.87610800e-01
0.30620100 1.97126300e-01
0.33620100 2.21355800e-01
0.36620100 2.57277900e-01
0.39620100 3.00220100e-01
0.42620100 3.01946200e-01
0.45620100 3.13698800e-01
0.48620100 4.04577800e-01
0.51620100 5.49863000e-01
0.54620100 5.71199000e-01
0.57620100 4.30514000e-01
0.60620100 2.86464400e-01
0.63620100 2.11221300e-01
0.66620100 1.79043600e-01
0.69620100 1.70601900e-01
0.72620100 1.58478200e-01
0.75620100 1.32816900e-01
