# E(MeV)  S_GAMTGAMT(K=1) for Pr153_DDPCX
-5.74842000 2.54161000e-03
-5.71842000 2.56053000e-03
-5.68842000 2.57960000e-03
-5.65842000 2.59884000e-03
-5.62842000 2.61826000e-03
-5.59842000 2.63787000e-03
-5.56842000 2.65767000e-03
-5.53842000 2.67769000e-03
-5.50842000 2.69792000e-03
-5.47842000 2.71839000e-03
-5.44842000 2.73910000e-03
-5.41842000 2.76006000e-03
-5.38842000 2.78129000e-03
-5.35842000 2.80280000e-03
-5.32842000 2.82460000e-03
-5.29842000 2.84670000e-03
-5.26842000 2.86911000e-03
-5.23842000 2.89186000e-03
-5.20842000 2.91496000e-03
-5.17842000 2.93842000e-03
-5.14842000 2.96225000e-03
-5.09235000 3.00787000e-03
-5.06235000 3.03290000e-03
-5.03235000 3.05838000e-03
-5.00235000 3.08434000e-03
-4.97235000 3.11082000e-03
-4.94235000 3.13783000e-03
-4.91235000 3.16543000e-03
-4.88235000 3.19365000e-03
-4.85235000 3.22257000e-03
-4.82235000 3.25225000e-03
-4.79235000 3.28282000e-03
-4.76235000 3.31443000e-03
-4.73235000 3.34739000e-03
-4.70235000 3.38217000e-03
-4.67235000 3.41975000e-03
-4.64235000 3.46223000e-03
-4.61235000 3.51430000e-03
-4.58235000 3.58408000e-03
-4.55235000 3.65860000e-03
-4.52235000 3.67559000e-03
-4.49235000 3.67342000e-03
-4.43628000 3.71646000e-03
-4.40628000 3.75381000e-03
-4.37628000 3.79694000e-03
-4.34628000 3.84586000e-03
-4.31628000 3.90272000e-03
-4.28628000 3.97352000e-03
-4.25628000 4.07113000e-03
-4.22628000 4.19799000e-03
-4.19628000 4.25739000e-03
-4.16628000 4.23629000e-03
-4.13628000 4.24062000e-03
-4.10628000 4.27415000e-03
-4.07628000 4.32355000e-03
-4.04628000 4.38235000e-03
-4.01628000 4.44791000e-03
-3.98628000 4.51927000e-03
-3.95628000 4.59620000e-03
-3.92628000 4.67891000e-03
-3.89628000 4.76781000e-03
-3.86628000 4.86357000e-03
-3.83628000 4.96701000e-03
-3.78021000 5.18474000e-03
-3.75021000 5.31692000e-03
-3.72021000 5.46237000e-03
-3.69021000 5.62345000e-03
-3.66021000 5.80310000e-03
-3.63021000 6.00503000e-03
-3.60021000 6.23395000e-03
-3.57021000 6.49596000e-03
-3.54021000 6.79903000e-03
-3.51021000 7.15375000e-03
-3.48021000 7.57444000e-03
-3.45021000 8.08081000e-03
-3.42021000 8.70062000e-03
-3.39021000 9.47393000e-03
-3.36021000 1.04602000e-02
-3.33021000 1.17508000e-02
-3.30021000 1.34913000e-02
-3.27021000 1.59245000e-02
-3.24021000 1.94783000e-02
-3.21021000 2.49554000e-02
-3.18021000 3.39780000e-02
-3.12414000 7.59162000e-02
-3.09414000 1.32284000e-01
-3.06414000 2.09207000e-01
-3.03414000 1.97402000e-01
-3.00414000 1.21502000e-01
-2.97414000 7.19124000e-02
-2.94414000 4.59410000e-02
-2.91414000 3.22879000e-02
-2.88414000 2.46236000e-02
-2.85414000 2.00409000e-02
-2.82414000 1.71957000e-02
-2.79414000 1.54411000e-02
-2.76414000 1.44827000e-02
-2.73414000 1.42659000e-02
-2.70414000 1.50160000e-02
-2.67414000 1.74325000e-02
-2.64414000 2.22632000e-02
-2.61414000 2.48033000e-02
-2.58414000 2.00472000e-02
-2.55414000 1.58811000e-02
-2.52414000 1.41753000e-02
-2.46808000 1.51988000e-02
-2.43808000 1.46471000e-02
-2.40808000 1.26646000e-02
-2.37808000 1.14214000e-02
-2.34808000 1.08290000e-02
-2.31808000 1.05699000e-02
-2.28808000 1.04903000e-02
-2.25808000 1.05222000e-02
-2.22808000 1.06355000e-02
-2.19808000 1.08182000e-02
-2.16808000 1.10703000e-02
-2.13808000 1.14029000e-02
-2.10808000 1.18441000e-02
-2.07808000 1.24547000e-02
-2.04808000 1.33535000e-02
-2.01808000 1.45963000e-02
-1.98808000 1.57339000e-02
-1.95808000 1.71992000e-02
-1.92808000 2.03149000e-02
-1.89808000 2.59128000e-02
-1.86808000 2.96859000e-02
-1.81201000 2.50978000e-02
-1.78201000 2.68141000e-02
-1.75201000 2.97641000e-02
-1.72201000 2.78982000e-02
-1.69201000 2.51193000e-02
-1.66201000 2.44466000e-02
-1.63201000 2.53772000e-02
-1.60201000 2.75511000e-02
-1.57201000 3.10865000e-02
-1.54201000 3.65621000e-02
-1.51201000 4.52765000e-02
-1.48201000 6.00365000e-02
-1.45201000 8.72098000e-02
-1.42201000 1.40894000e-01
-1.39201000 2.35137000e-01
-1.36201000 2.83699000e-01
-1.33201000 1.97948000e-01
-1.30201000 1.20059000e-01
-1.27201000 8.06131000e-02
-1.24201000 6.13098000e-02
-1.21201000 5.16359000e-02
-1.15594000 4.47752000e-02
-1.12594000 4.35863000e-02
-1.09594000 4.41579000e-02
-1.06594000 4.66605000e-02
-1.03594000 5.15582000e-02
-1.00594000 5.76006000e-02
-0.97593700 6.00387000e-02
-0.94593700 6.33207000e-02
-0.91593700 7.16004000e-02
-0.88593700 8.31228000e-02
-0.85593700 9.28900000e-02
-0.82593700 1.09974000e-01
-0.79593700 1.46224000e-01
-0.76593700 2.07044000e-01
-0.73593700 2.35812000e-01
-0.70593700 1.97071000e-01
-0.67593700 1.71129000e-01
-0.64593700 1.71334000e-01
-0.61593700 1.90234000e-01
-0.58593700 2.27053000e-01
-0.55593700 2.88522000e-01
-0.49986800 5.48679000e-01
-0.46986800 8.79232000e-01
-0.43986800 1.42277000e+00
-0.40986800 1.65619000e+00
-0.37986800 1.31202000e+00
-0.34986800 1.15036000e+00
-0.31986800 1.32733000e+00
-0.28986800 1.93509000e+00
-0.25986800 3.26880000e+00
-0.22986800 4.96099000e+00
-0.19986800 4.39694000e+00
-0.16986800 2.57328000e+00
-0.13986800 1.47020000e+00
-0.10986800 9.13456000e-01
-0.07986820 6.12955000e-01
-0.04986820 4.38119000e-01
-0.01986820 3.29167000e-01
0.01013180 2.57147000e-01
0.04013180 2.07253000e-01
0.07013180 1.71400000e-01
0.10013200 1.44914000e-01
0.15620100 1.11483000e-01
0.18620100 9.95065000e-02
0.21620100 9.07046000e-02
0.24620100 8.49137000e-02
0.27620100 8.26576000e-02
0.30620100 8.55920000e-02
0.33620100 9.50532000e-02
0.36620100 1.08941000e-01
0.39620100 1.23709000e-01
0.42620100 1.12587000e-01
0.45620100 9.51834000e-02
0.48620100 9.57139000e-02
0.51620100 1.18414000e-01
0.54620100 1.51159000e-01
0.57620100 1.33392000e-01
0.60620100 9.28627000e-02
0.63620100 7.00574000e-02
0.66620100 5.97385000e-02
0.69620100 5.60911000e-02
0.72620100 5.25801000e-02
0.75620100 4.58060000e-02
