# E(MeV)  S_GAMTGAMT(Total=K0+2*K1) for Pr151_DDPCX
-3.99320000 8.18489000e-03
-3.96320000 9.60583000e-03
-3.93320000 1.03869300e-02
-3.90320000 1.08766100e-02
-3.87320000 1.12337600e-02
-3.84320000 1.15282000e-02
-3.81320000 1.17929300e-02
-3.78320000 1.20450900e-02
-3.75320000 1.22943900e-02
-3.72320000 1.25469000e-02
-3.69320000 1.28068600e-02
-3.66320000 1.30776000e-02
-3.63320000 1.33620100e-02
-3.60320000 1.36626700e-02
-3.57320000 1.39814700e-02
-3.54320000 1.43215700e-02
-3.51265000 1.46935100e-02
-3.48265000 1.50875200e-02
-3.45265000 1.55139700e-02
-3.42265000 1.59775400e-02
-3.39265000 1.64837500e-02
-3.36265000 1.70392100e-02
-3.33265000 1.76518300e-02
-3.30265000 1.83311700e-02
-3.27265000 1.90890000e-02
-3.24265000 1.99396400e-02
-3.21265000 2.09011800e-02
-3.18265000 2.19964600e-02
-3.15265000 2.32547000e-02
-3.12265000 2.47144000e-02
-3.09265000 2.64274000e-02
-3.06265000 2.84655000e-02
-3.03210000 3.09583000e-02
-3.00210000 3.38698400e-02
-2.97210000 3.74234600e-02
-2.94210000 4.19112200e-02
-2.91210000 4.76816400e-02
-2.88210000 5.52653400e-02
-2.85210000 6.55127600e-02
-2.82210000 7.98401800e-02
-2.79210000 1.00728220e-01
-2.76210000 1.32800880e-01
-2.73210000 1.85328740e-01
-2.70210000 2.78412920e-01
-2.67210000 4.57921960e-01
-2.64210000 8.12512660e-01
-2.61210000 1.28605178e+00
-2.58210000 1.18067392e+00
-2.55156000 6.91322480e-01
-2.52156000 3.98687460e-01
-2.49156000 2.53274160e-01
-2.46156000 1.77658600e-01
-2.43156000 1.35845800e-01
-2.40156000 1.12270300e-01
-2.37156000 1.00167600e-01
-2.34156000 9.71825000e-02
-2.31156000 1.04309800e-01
-2.28156000 1.27260700e-01
-2.25156000 1.80678600e-01
-2.22156000 2.81361900e-01
-2.19156000 3.41342400e-01
-2.16156000 2.49040700e-01
-2.13156000 1.57160900e-01
-2.10156000 1.07099100e-01
-2.07101000 8.15958000e-02
-2.04101000 6.91083000e-02
-2.01101000 6.19289000e-02
-1.98101000 5.69944000e-02
-1.95101000 5.48299000e-02
-1.92101000 5.51701000e-02
-1.89101000 5.78816000e-02
-1.86101000 6.34288000e-02
-1.83101000 7.30984000e-02
-1.80101000 8.96903000e-02
-1.77101000 1.19350000e-01
-1.74101000 1.76085300e-01
-1.71101000 2.87994400e-01
-1.68101000 4.50083000e-01
-1.65101000 4.56825000e-01
-1.62101000 3.42261800e-01
-1.59046000 3.02333500e-01
-1.56046000 2.69132400e-01
-1.53046000 1.85741300e-01
-1.50046000 1.26911100e-01
-1.47046000 9.68386000e-02
-1.44046000 8.17929000e-02
-1.41046000 7.50390000e-02
-1.38046000 7.43544000e-02
-1.35046000 7.97336000e-02
-1.32046000 9.37185000e-02
-1.29046000 1.23546900e-01
-1.26046000 1.85784800e-01
-1.23046000 2.93825200e-01
-1.20046000 3.36708400e-01
-1.17046000 2.33646600e-01
-1.14046000 1.48236000e-01
-1.10992000 1.05678300e-01
-1.07992000 8.72223000e-02
-1.04992000 8.23158000e-02
-1.01992000 8.94572000e-02
-0.98991600 1.03279800e-01
-0.95991600 9.61376000e-02
-0.92991600 7.84764000e-02
-0.89991600 6.83215000e-02
-0.86991600 6.37978000e-02
-0.83991600 6.30570000e-02
-0.80991600 6.13249000e-02
-0.77991600 5.98664000e-02
-0.74991600 6.08978000e-02
-0.71991600 6.45672000e-02
-0.68991600 7.18873000e-02
-0.65991600 8.59521000e-02
-0.62937000 1.12011100e-01
-0.59937000 1.34126100e-01
-0.56937000 1.20879100e-01
-0.53937000 1.07194200e-01
-0.50937000 1.06258000e-01
-0.47937000 1.01789800e-01
-0.44937000 9.53103000e-02
-0.41937000 9.41788000e-02
-0.38937000 9.70808000e-02
-0.35937000 1.02520100e-01
-0.32937000 1.10095970e-01
-0.29937000 1.19866810e-01
-0.26937000 1.31915720e-01
-0.23937000 1.46888890e-01
-0.20937000 1.65779700e-01
-0.17937000 1.89924500e-01
-0.14882300 2.22143650e-01
-0.11882300 2.65052260e-01
-0.08882310 3.25386080e-01
-0.05882310 4.08096630e-01
-0.02882310 5.10918300e-01
0.00117690 6.64252600e-01
0.03117690 9.14430350e-01
0.06117690 1.26540072e+00
0.09117690 1.78730437e+00
0.12117700 2.80746457e+00
0.15117700 4.91744146e+00
0.18117700 8.05635725e+00
0.21117700 7.95700155e+00
0.24117700 4.79348850e+00
0.27117700 2.70454040e+00
0.30117700 1.66432210e+00
0.33172300 1.10606620e+00
0.36172300 7.84299660e-01
0.39172300 5.87037560e-01
0.42172300 4.60425350e-01
0.45172300 3.77098870e-01
0.48172300 3.21507290e-01
0.51172300 2.76887330e-01
0.54172300 2.38791740e-01
0.57172300 2.11137600e-01
0.60172300 1.92222330e-01
0.63172300 1.80254800e-01
0.66172300 1.74961100e-01
0.69172300 1.75599400e-01
0.72172300 1.84014600e-01
0.75172300 2.01411900e-01
0.78172300 2.05919900e-01
