# E(MeV)  S_GAMTGAMT(K=0) for Pr151_DDPCX
-3.99320000 1.66181000e-03
-3.96320000 3.02061000e-03
-3.93320000 3.73867000e-03
-3.90320000 4.16433000e-03
-3.87320000 4.45634000e-03
-3.84320000 4.68444000e-03
-3.81320000 4.88155000e-03
-3.78320000 5.06469000e-03
-3.75320000 5.24347000e-03
-3.72320000 5.42384000e-03
-3.69320000 5.60994000e-03
-3.66320000 5.80492000e-03
-3.63320000 6.01147000e-03
-3.60320000 6.23211000e-03
-3.57320000 6.46937000e-03
-3.54320000 6.72593000e-03
-3.51265000 7.01005000e-03
-3.48265000 7.31496000e-03
-3.45265000 7.64939000e-03
-3.42265000 8.01782000e-03
-3.39265000 8.42557000e-03
-3.36265000 8.87897000e-03
-3.33265000 9.38561000e-03
-3.30265000 9.95471000e-03
-3.27265000 1.05976000e-02
-3.24265000 1.13281000e-02
-3.21265000 1.21636000e-02
-3.18265000 1.31260000e-02
-3.15265000 1.42431000e-02
-3.12265000 1.55509000e-02
-3.09265000 1.70962000e-02
-3.06265000 1.89416000e-02
-3.03210000 2.12160000e-02
-3.00210000 2.39561000e-02
-2.97210000 2.73625000e-02
-2.94210000 3.16715000e-02
-2.91210000 3.72328000e-02
-2.88210000 4.45820000e-02
-2.85210000 5.45700000e-02
-2.82210000 6.86109000e-02
-2.79210000 8.91814000e-02
-2.76210000 1.20900000e-01
-2.73210000 1.73030000e-01
-2.70210000 2.65663000e-01
-2.67210000 4.44655000e-01
-2.64210000 7.98646000e-01
-2.61210000 1.27148000e+00
-2.58210000 1.16526000e+00
-2.55156000 6.74864000e-01
-2.52156000 3.80953000e-01
-2.49156000 2.33917000e-01
-2.46156000 1.56179000e-01
-2.43156000 1.11496000e-01
-2.40156000 8.38805000e-02
-2.37156000 6.58066000e-02
-2.34156000 5.34497000e-02
-2.31156000 4.47386000e-02
-2.28156000 3.85079000e-02
-2.25156000 3.41240000e-02
-2.22156000 3.13579000e-02
-2.19156000 3.03824000e-02
-2.16156000 3.08767000e-02
-2.13156000 2.89931000e-02
-2.10156000 2.50785000e-02
-2.07101000 2.24590000e-02
-2.04101000 2.11135000e-02
-2.01101000 2.05307000e-02
-1.98101000 2.05270000e-02
-1.95101000 2.10805000e-02
-1.92101000 2.22819000e-02
-1.89101000 2.43486000e-02
-1.86101000 2.76998000e-02
-1.83101000 3.31390000e-02
-1.80101000 4.22831000e-02
-1.77101000 5.86248000e-02
-1.74101000 9.01315000e-02
-1.71101000 1.52945000e-01
-1.68101000 2.44783000e-01
-1.65101000 2.41025000e-01
-1.62101000 1.49721000e-01
-1.59046000 8.95635000e-02
-1.56046000 6.12104000e-02
-1.53046000 4.66379000e-02
-1.50046000 3.82569000e-02
-1.47046000 3.41102000e-02
-1.44046000 3.29771000e-02
-1.41046000 3.43882000e-02
-1.38046000 3.86810000e-02
-1.35046000 4.72068000e-02
-1.32046000 6.32299000e-02
-1.29046000 9.43813000e-02
-1.26046000 1.57453000e-01
-1.23046000 2.65974000e-01
-1.20046000 3.09070000e-01
-1.17046000 2.06007000e-01
-1.14046000 1.20414000e-01
-1.10992000 7.75033000e-02
-1.07992000 5.85405000e-02
-1.04992000 5.29554000e-02
-1.01992000 5.92048000e-02
-0.98991600 7.18196000e-02
-0.95991600 6.29410000e-02
-0.92991600 4.29600000e-02
-0.89991600 3.13877000e-02
-0.86991600 2.65822000e-02
-0.83991600 2.49308000e-02
-0.80991600 2.14827000e-02
-0.77991600 1.75474000e-02
-0.74991600 1.51258000e-02
-0.71991600 1.37542000e-02
-0.68991600 1.30173000e-02
-0.65991600 1.27689000e-02
-0.62937000 1.30661000e-02
-0.59937000 1.41869000e-02
-0.56937000 1.68875000e-02
-0.53937000 2.26320000e-02
-0.50937000 3.00398000e-02
-0.47937000 2.73826000e-02
-0.44937000 1.92905000e-02
-0.41937000 1.44064000e-02
-0.38937000 1.19152000e-02
-0.35937000 1.05593000e-02
-0.32937000 9.75557000e-03
-0.29937000 9.24601000e-03
-0.26937000 8.90932000e-03
-0.23937000 8.68509000e-03
-0.20937000 8.54350000e-03
-0.17937000 8.47370000e-03
-0.14882300 8.48365000e-03
-0.11882300 8.60826000e-03
-0.08882310 8.94008000e-03
-0.05882310 9.66463000e-03
-0.02882310 1.06483000e-02
0.00117690 1.04026000e-02
0.03117690 9.39635000e-03
0.06117690 8.80672000e-03
0.09117690 8.55437000e-03
0.12117700 8.48457000e-03
0.15117700 8.54146000e-03
0.18117700 8.73725000e-03
0.21117700 9.16155000e-03
0.24117700 1.00285000e-02
0.27117700 1.14004000e-02
0.30117700 1.16341000e-02
0.33172300 1.03502000e-02
0.36172300 9.48566000e-03
0.39172300 9.09956000e-03
0.42172300 8.95535000e-03
0.45172300 8.93687000e-03
0.48172300 8.99729000e-03
0.51172300 9.12133000e-03
0.54172300 9.31174000e-03
0.57172300 9.58760000e-03
0.60172300 9.99173000e-03
0.63172300 1.06124000e-02
0.66172300 1.16381000e-02
0.69172300 1.34958000e-02
0.72172300 1.71212000e-02
0.75172300 2.33545000e-02
0.78172300 2.64085000e-02
