# E(MeV)  S_GAMTGAMT(K=1) for Pt229_DDPCX
-11.02350000 3.02693000e-03
-10.99350000 3.03959000e-03
-10.96350000 3.05233000e-03
-10.93350000 3.06517000e-03
-10.90350000 3.07810000e-03
-10.87350000 3.09113000e-03
-10.84350000 3.10425000e-03
-10.81350000 3.11747000e-03
-10.78350000 3.13079000e-03
-10.75350000 3.14421000e-03
-10.72350000 3.15774000e-03
-10.69350000 3.17137000e-03
-10.66350000 3.18511000e-03
-10.63350000 3.19895000e-03
-10.60350000 3.21291000e-03
-10.57350000 3.22698000e-03
-10.54350000 3.24117000e-03
-10.51350000 3.25548000e-03
-10.48350000 3.26991000e-03
-10.45350000 3.28447000e-03
-10.42350000 3.29917000e-03
-10.39350000 3.31400000e-03
-10.36350000 3.32899000e-03
-10.33350000 3.34414000e-03
-10.30350000 3.35950000e-03
-10.27350000 3.37512000e-03
-10.24350000 3.39115000e-03
-10.21350000 3.40789000e-03
-10.18350000 3.42573000e-03
-10.15350000 3.44304000e-03
-10.12350000 3.45726000e-03
-10.09350000 3.47153000e-03
-10.06350000 3.48689000e-03
-10.03350000 3.50292000e-03
-10.00350000 3.51936000e-03
-9.97350000 3.53610000e-03
-9.94350000 3.55309000e-03
-9.91350000 3.57031000e-03
-9.88350000 3.58776000e-03
-9.83992000 3.61353000e-03
-9.80992000 3.63157000e-03
-9.77992000 3.64986000e-03
-9.74992000 3.66844000e-03
-9.71992000 3.68731000e-03
-9.68992000 3.70651000e-03
-9.65992000 3.72607000e-03
-9.62992000 3.74603000e-03
-9.59992000 3.76647000e-03
-9.56992000 3.78746000e-03
-9.53992000 3.80911000e-03
-9.50992000 3.83159000e-03
-9.47992000 3.85513000e-03
-9.44992000 3.88007000e-03
-9.41992000 3.90698000e-03
-9.38992000 3.93676000e-03
-9.35992000 3.97101000e-03
-9.32992000 4.01266000e-03
-9.29992000 4.06755000e-03
-9.26992000 4.14826000e-03
-9.23992000 4.28312000e-03
-9.20992000 4.52765000e-03
-9.17992000 4.87000000e-03
-9.14992000 4.87092000e-03
-9.11992000 4.57199000e-03
-9.08992000 4.38591000e-03
-9.05992000 4.30530000e-03
-9.02992000 4.27546000e-03
-8.99992000 4.27014000e-03
-8.96992000 4.27802000e-03
-8.93992000 4.29394000e-03
-8.90992000 4.31352000e-03
-8.87992000 4.33430000e-03
-8.84992000 4.35793000e-03
-8.81992000 4.38440000e-03
-8.78992000 4.41334000e-03
-8.75992000 4.44480000e-03
-8.72992000 4.47934000e-03
-8.69992000 4.51845000e-03
-8.65635000 4.58976000e-03
-8.62635000 4.64450000e-03
-8.59635000 4.68071000e-03
-8.56635000 4.71841000e-03
-8.53635000 4.77539000e-03
-8.50635000 4.86097000e-03
-8.47635000 4.99676000e-03
-8.44635000 5.18377000e-03
-8.41635000 5.24680000e-03
-8.38635000 5.17993000e-03
-8.35635000 5.16709000e-03
-8.32635000 5.20989000e-03
-8.29635000 5.28952000e-03
-8.26635000 5.40849000e-03
-8.23635000 5.57793000e-03
-8.20635000 5.82465000e-03
-8.17635000 6.20664000e-03
-8.14635000 6.84379000e-03
-8.11635000 7.95481000e-03
-8.08635000 9.93543000e-03
-8.05635000 1.26835000e-02
-8.02635000 1.29570000e-02
-7.99635000 1.11283000e-02
-7.96635000 9.56760000e-03
-7.93635000 8.40438000e-03
-7.90635000 8.02755000e-03
-7.87635000 8.35206000e-03
-7.84635000 9.41926000e-03
-7.81635000 1.11160000e-02
-7.78635000 1.33781000e-02
-7.75635000 1.46740000e-02
-7.72635000 1.29201000e-02
-7.69635000 1.05865000e-02
-7.66635000 9.29376000e-03
-7.63635000 8.56349000e-03
-7.60635000 8.41503000e-03
-7.57635000 8.78785000e-03
-7.54635000 9.06391000e-03
-7.51635000 8.88888000e-03
-7.47277000 9.33629000e-03
-7.44277000 1.05003000e-02
-7.41277000 1.29265000e-02
-7.38277000 1.77701000e-02
-7.35277000 2.42693000e-02
-7.32277000 2.31304000e-02
-7.29277000 1.71736000e-02
-7.26277000 1.40576000e-02
-7.23277000 1.35703000e-02
-7.20277000 1.40800000e-02
-7.17277000 1.30695000e-02
-7.14277000 1.19854000e-02
-7.11277000 1.17521000e-02
-7.08277000 1.20780000e-02
-7.05277000 1.31563000e-02
-7.02277000 1.52659000e-02
-6.99277000 1.90460000e-02
-6.96277000 2.57365000e-02
-6.93277000 3.34048000e-02
-6.90277000 3.51429000e-02
-6.87277000 3.77566000e-02
-6.84277000 4.84370000e-02
-6.81277000 5.05628000e-02
-6.78277000 3.61681000e-02
-6.75277000 2.54584000e-02
-6.72277000 2.04555000e-02
-6.69277000 1.86005000e-02
-6.66277000 1.86787000e-02
-6.63277000 2.05980000e-02
-6.60277000 2.43538000e-02
-6.57277000 2.93278000e-02
-6.54277000 3.89373000e-02
-6.51277000 5.97924000e-02
-6.48277000 8.95578000e-02
-6.45277000 8.60581000e-02
-6.42277000 5.68099000e-02
-6.39277000 3.87514000e-02
-6.36277000 3.10660000e-02
-6.33277000 2.92946000e-02
-6.28919000 3.57411000e-02
-6.25919000 5.00701000e-02
-6.22919000 7.66416000e-02
-6.19919000 9.42416000e-02
-6.16919000 7.48914000e-02
-6.13919000 5.11408000e-02
-6.10919000 3.54916000e-02
-6.07919000 2.69231000e-02
-6.04919000 2.19917000e-02
-6.01919000 1.95579000e-02
-5.98919000 1.89790000e-02
-5.95919000 1.97863000e-02
-5.92919000 2.00512000e-02
-5.89919000 1.90139000e-02
-5.86919000 1.88936000e-02
-5.83919000 2.04226000e-02
-5.80919000 2.40971000e-02
-5.77919000 3.15947000e-02
-5.74919000 4.62186000e-02
-5.71919000 6.43325000e-02
-5.68919000 6.77517000e-02
-5.65919000 5.09775000e-02
-5.62919000 3.41652000e-02
-5.59919000 2.53012000e-02
-5.56919000 2.10093000e-02
-5.53919000 1.89809000e-02
-5.50919000 1.82408000e-02
-5.47919000 1.84610000e-02
-5.44919000 1.97135000e-02
-5.41919000 2.24735000e-02
-5.38919000 2.73848000e-02
-5.35919000 3.37841000e-02
-5.32919000 3.99063000e-02
-5.29919000 5.29408000e-02
-5.26919000 7.54834000e-02
-5.23919000 7.98280000e-02
-5.20919000 6.14819000e-02
-5.17919000 4.54663000e-02
-5.14919000 3.70174000e-02
-5.10562000 3.57060000e-02
-5.07562000 3.17165000e-02
-5.04562000 2.54661000e-02
-5.01562000 2.17202000e-02
-4.98562000 1.99563000e-02
-4.95562000 1.92416000e-02
-4.92562000 1.92506000e-02
-4.89562000 1.99313000e-02
-4.86562000 2.15575000e-02
-4.83562000 2.39759000e-02
-4.80562000 2.49005000e-02
-4.77562000 2.42667000e-02
-4.74562000 2.48438000e-02
-4.71562000 2.70978000e-02
-4.68562000 3.14515000e-02
-4.65562000 3.96071000e-02
-4.62562000 5.51777000e-02
-4.59562000 7.64225000e-02
-4.56562000 7.73335000e-02
-4.53562000 6.61593000e-02
-4.50562000 5.91294000e-02
-4.47562000 5.84260000e-02
-4.44562000 6.47365000e-02
-4.41562000 7.50727000e-02
-4.38562000 9.86413000e-02
-4.35562000 1.46194000e-01
-4.32562000 2.25526000e-01
-4.29562000 2.80520000e-01
-4.26562000 2.09819000e-01
-4.23562000 1.28377000e-01
-4.20562000 8.59755000e-02
-4.17562000 6.65142000e-02
-4.14562000 5.98779000e-02
-4.11562000 6.34884000e-02
-4.08562000 7.36450000e-02
-4.05562000 7.23378000e-02
-4.02562000 6.58234000e-02
-3.99562000 5.89619000e-02
-3.96562000 4.73464000e-02
-3.92204000 3.76501000e-02
-3.89204000 3.51396000e-02
-3.86204000 3.43750000e-02
-3.83204000 3.49447000e-02
-3.80204000 3.69278000e-02
-3.77204000 4.10542000e-02
-3.74204000 4.87237000e-02
-3.71204000 5.72616000e-02
-3.68204000 6.09327000e-02
-3.65204000 6.90999000e-02
-3.62204000 7.82914000e-02
-3.59204000 7.24787000e-02
-3.56204000 6.26195000e-02
-3.53204000 5.49548000e-02
-3.50204000 5.01181000e-02
-3.47204000 4.83177000e-02
-3.44204000 4.87663000e-02
-3.41204000 5.04511000e-02
-3.38204000 5.23123000e-02
-3.35204000 5.51371000e-02
-3.32204000 5.91874000e-02
-3.29204000 6.34913000e-02
-3.26204000 6.79129000e-02
-3.23204000 7.34160000e-02
-3.20204000 8.07956000e-02
-3.17204000 9.06268000e-02
-3.14204000 1.03771000e-01
-3.11204000 1.21908000e-01
-3.08204000 1.47924000e-01
-3.05204000 1.85408000e-01
-3.02204000 2.33519000e-01
-2.99204000 3.03815000e-01
-2.96204000 4.30816000e-01
-2.93204000 6.57605000e-01
-2.90204000 1.03611000e+00
-2.87204000 1.56865000e+00
-2.84204000 1.81043000e+00
-2.81204000 1.59002000e+00
-2.78204000 1.25215000e+00
-2.73846000 9.20286000e-01
-2.70846000 8.72018000e-01
-2.67846000 7.31706000e-01
-2.64846000 5.09558000e-01
-2.61846000 3.77985000e-01
-2.58846000 3.09926000e-01
-2.55846000 2.81188000e-01
-2.52846000 2.82247000e-01
-2.49846000 3.10657000e-01
-2.46846000 3.69699000e-01
-2.43846000 4.74801000e-01
-2.40846000 5.85043000e-01
-2.37846000 5.94684000e-01
-2.34846000 5.44529000e-01
-2.31846000 5.57421000e-01
-2.28846000 6.62148000e-01
-2.25846000 8.82792000e-01
-2.22846000 1.26638000e+00
-2.19846000 1.62859000e+00
-2.16846000 1.79530000e+00
-2.13846000 2.29785000e+00
-2.10846000 3.59454000e+00
-2.07846000 5.74178000e+00
-2.04846000 6.39759000e+00
-2.01846000 4.21714000e+00
-1.98846000 2.43895000e+00
-1.95846000 1.54200000e+00
-1.92846000 1.06651000e+00
-1.89846000 7.83782000e-01
-1.86846000 6.20714000e-01
-1.83846000 5.22574000e-01
-1.80846000 4.59536000e-01
-1.77846000 4.28958000e-01
-1.74846000 4.28104000e-01
-1.71846000 4.58854000e-01
-1.68846000 5.28820000e-01
-1.65846000 6.61119000e-01
-1.62846000 9.14765000e-01
-1.59846000 1.42090000e+00
-1.55488000 2.97473000e+00
-1.52488000 3.47969000e+00
-1.49488000 2.44709000e+00
-1.46488000 1.60605000e+00
-1.43488000 1.29538000e+00
-1.40488000 1.38273000e+00
-1.37488000 1.88371000e+00
-1.34488000 2.54106000e+00
-1.31488000 2.35626000e+00
-1.28488000 1.78693000e+00
-1.25488000 1.70694000e+00
-1.22488000 2.06657000e+00
-1.19488000 1.96458000e+00
-1.16488000 1.30361000e+00
-1.13488000 8.20262000e-01
-1.10488000 5.62685000e-01
-1.07488000 4.26165000e-01
-1.04488000 3.56575000e-01
-1.01488000 3.33527000e-01
-0.98488400 3.42121000e-01
-0.95488400 3.41808000e-01
-0.92488400 3.26116000e-01
-0.89488400 2.95193000e-01
-0.86488400 2.80665000e-01
-0.83488400 2.73846000e-01
-0.80488400 2.64540000e-01
-0.77488400 2.81283000e-01
-0.74488400 3.03703000e-01
-0.71488400 2.85944000e-01
-0.68488400 2.74174000e-01
-0.65488400 2.43311000e-01
-0.62488400 2.14483000e-01
-0.59488400 2.17451000e-01
-0.56488400 2.56640000e-01
-0.53488400 2.95116000e-01
-0.50488400 2.54168000e-01
-0.47488400 2.10293000e-01
-0.44488400 2.03718000e-01
-0.41488400 2.17931000e-01
-0.37130700 2.93164000e-01
-0.34130700 4.33684000e-01
-0.31130700 6.45830000e-01
-0.28130700 6.50207000e-01
-0.25130700 4.87850000e-01
-0.22130700 4.40039000e-01
-0.19130700 4.89632000e-01
-0.16130700 4.48114000e-01
-0.13130700 3.46645000e-01
-0.10130700 3.19284000e-01
-0.07130700 3.65793000e-01
-0.04130700 4.07189000e-01
-0.01130700 4.13495000e-01
0.01869300 4.93752000e-01
0.04869300 6.45117000e-01
0.07869300 8.17935000e-01
0.10869300 7.95139000e-01
0.13869300 6.93347000e-01
0.16869300 5.67941000e-01
0.19869300 4.17987000e-01
0.22869300 2.96497000e-01
0.25869300 2.23008000e-01
0.28869300 1.73105000e-01
0.31869300 1.44582000e-01
0.34869300 1.22722000e-01
0.37869300 1.08069000e-01
0.40869300 1.00336000e-01
0.43869300 9.65549000e-02
0.46869300 9.28017000e-02
0.49869300 8.93625000e-02
0.52869300 8.94575000e-02
0.55869300 9.30233000e-02
0.58869300 1.01543000e-01
0.61869300 1.22923000e-01
0.64869300 1.65976000e-01
0.67869300 2.10967000e-01
0.70869300 1.97393000e-01
0.73869300 1.71975000e-01
0.76869300 1.81849000e-01
