# E(MeV)  S_NSDRNSDR(Total=K0+2*K1) for Pu271_DDPCX
-6.39589000 1.08473400e+00
-6.36589000 1.10197300e+00
-6.33589000 1.11993800e+00
-6.30589000 1.13879300e+00
-6.27589000 1.15880900e+00
-6.24589000 1.18043900e+00
-6.21589000 1.20453400e+00
-6.18589000 1.23280300e+00
-6.15589000 1.26892300e+00
-6.12589000 1.32035500e+00
-6.09589000 1.39457000e+00
-6.06589000 1.48399400e+00
-6.03589000 1.51280000e+00
-6.00589000 1.45796800e+00
-5.97589000 1.42474800e+00
-5.94589000 1.42016500e+00
-5.91589000 1.43009900e+00
-5.88589000 1.44732200e+00
-5.85589000 1.46868100e+00
-5.82589000 1.49273700e+00
-5.79589000 1.51879500e+00
-5.76589000 1.54650700e+00
-5.73589000 1.57569500e+00
-5.70589000 1.60628400e+00
-5.67507000 1.63913200e+00
-5.64507000 1.67251200e+00
-5.61507000 1.70731300e+00
-5.58507000 1.74358400e+00
-5.55507000 1.78139600e+00
-5.52507000 1.82082800e+00
-5.49507000 1.86197500e+00
-5.46507000 1.90494400e+00
-5.43507000 1.94985300e+00
-5.40507000 1.99683800e+00
-5.37507000 2.04606100e+00
-5.34507000 2.09770600e+00
-5.31507000 2.15200900e+00
-5.28507000 2.20928600e+00
-5.25507000 2.27002800e+00
-5.22507000 2.33476800e+00
-5.19507000 2.40272600e+00
-5.16507000 2.47217700e+00
-5.13507000 2.54454900e+00
-5.10507000 2.62224500e+00
-5.07507000 2.70566300e+00
-5.04507000 2.79503500e+00
-5.01507000 2.89085700e+00
-4.98507000 2.99383900e+00
-4.95426000 3.10803000e+00
-4.92426000 3.22850000e+00
-4.89426000 3.35958000e+00
-4.86426000 3.50299000e+00
-4.83426000 3.66097000e+00
-4.80426000 3.83633000e+00
-4.77426000 4.03294000e+00
-4.74426000 4.25593000e+00
-4.71426000 4.51262000e+00
-4.68426000 4.81362000e+00
-4.65426000 5.17506000e+00
-4.62426000 5.62265000e+00
-4.59426000 6.19989000e+00
-4.56426000 6.98555000e+00
-4.53426000 8.13385000e+00
-4.50426000 9.97305000e+00
-4.47426000 1.32363400e+01
-4.44426000 1.92429400e+01
-4.41426000 2.68424600e+01
-4.38426000 2.73331400e+01
-4.35426000 2.24699400e+01
-4.32426000 2.06888500e+01
-4.29426000 2.08021000e+01
-4.26426000 1.92270000e+01
-4.23344000 1.76582300e+01
-4.20344000 1.82238500e+01
-4.17344000 2.09103900e+01
-4.14344000 2.47767100e+01
-4.11344000 2.96782400e+01
-4.08344000 3.87913000e+01
-4.05344000 5.30196000e+01
-4.02344000 7.46849000e+01
-3.99344000 9.78109000e+01
-3.96344000 9.82345000e+01
-3.93344000 8.61260000e+01
-3.90344000 7.12186000e+01
-3.87344000 5.95036000e+01
-3.84344000 5.96725000e+01
-3.81344000 7.40051000e+01
-3.78344000 1.04163930e+02
-3.75344000 1.22185200e+02
-3.72344000 1.08480600e+02
-3.69344000 1.04015400e+02
-3.66344000 1.14802400e+02
-3.63344000 1.37799500e+02
-3.60344000 1.61967800e+02
-3.57344000 1.75873400e+02
-3.54344000 2.18233600e+02
-3.51263000 3.17675600e+02
-3.48263000 4.05529800e+02
-3.45263000 4.59242100e+02
-3.42263000 5.38700000e+02
-3.39263000 5.49369000e+02
-3.36263000 5.65200000e+02
-3.33263000 5.31522000e+02
-3.30263000 3.95368600e+02
-3.27263000 3.18962200e+02
-3.24263000 2.32855600e+02
-3.21263000 1.49261800e+02
-3.18263000 1.01070400e+02
-3.15263000 7.47643000e+01
-3.12263000 5.86308000e+01
-3.09263000 4.80556000e+01
-3.06263000 4.14233000e+01
-3.03263000 3.73293000e+01
-3.00263000 3.38652000e+01
-2.97263000 3.15421200e+01
-2.94263000 3.10335200e+01
-2.91263000 3.20789200e+01
-2.88263000 3.41678000e+01
-2.85263000 3.75950000e+01
-2.82263000 4.54434000e+01
-2.79181000 6.30160000e+01
-2.76181000 9.24356000e+01
-2.73181000 1.22138700e+02
-2.70181000 1.42280100e+02
-2.67181000 1.13658800e+02
-2.64181000 7.31196000e+01
-2.61181000 5.11497000e+01
-2.58181000 4.10224200e+01
-2.55181000 3.71363100e+01
-2.52181000 3.66107300e+01
-2.49181000 3.91540400e+01
-2.46181000 4.65411400e+01
-2.43181000 5.73426000e+01
-2.40181000 6.96494000e+01
-2.37181000 8.88514000e+01
-2.34181000 1.00116000e+02
-2.31181000 9.59725000e+01
-2.28181000 8.71406000e+01
-2.25181000 7.52601000e+01
-2.22181000 6.57727000e+01
-2.19181000 6.04898000e+01
-2.16181000 5.93307000e+01
-2.13181000 6.53040000e+01
-2.10181000 8.08960000e+01
-2.07099000 1.06815200e+02
-2.04099000 1.19636100e+02
-2.01099000 1.10183000e+02
-1.98099000 1.05769900e+02
-1.95099000 1.15442600e+02
-1.92099000 1.39562900e+02
-1.89099000 1.83380900e+02
-1.86099000 2.59860000e+02
-1.83099000 3.79737200e+02
-1.80099000 5.44228000e+02
-1.77099000 7.65581000e+02
-1.74099000 1.14053400e+03
-1.71099000 1.61088700e+03
-1.68099000 1.48452500e+03
-1.65099000 1.03499900e+03
-1.62099000 8.41706000e+02
-1.59099000 8.12933000e+02
-1.56099000 7.14660000e+02
-1.53099000 6.04800000e+02
-1.50099000 5.27701000e+02
-1.47099000 4.07792000e+02
-1.44099000 2.71997200e+02
-1.41099000 1.87199700e+02
-1.38099000 1.41871600e+02
-1.35018000 1.17429100e+02
-1.32018000 1.02839400e+02
-1.29018000 9.21234000e+01
-1.26018000 8.41491000e+01
-1.23018000 7.70898000e+01
-1.20018000 7.25343000e+01
-1.17018000 7.29589000e+01
-1.14018000 8.00734000e+01
-1.11018000 8.66305000e+01
-1.08018000 9.87729000e+01
-1.05018000 1.20666700e+02
-1.02018000 1.43847800e+02
-0.99017800 1.77728800e+02
-0.96017800 2.05775400e+02
-0.93017800 1.99159200e+02
-0.90017800 1.72523300e+02
-0.87017800 1.84235800e+02
-0.84017800 2.26476000e+02
-0.81017800 2.13509200e+02
-0.78017800 1.72533400e+02
-0.75017800 1.61274100e+02
-0.72017800 1.52650300e+02
-0.69017800 1.36731200e+02
-0.66017800 1.34088800e+02
-0.62936200 1.42459000e+02
-0.59936200 1.64511400e+02
-0.56936200 2.04630800e+02
-0.53936200 2.24279700e+02
-0.50936200 1.96908700e+02
-0.47936200 1.95140400e+02
-0.44936200 1.86574600e+02
-0.41936200 1.50296000e+02
-0.38936200 1.29210400e+02
-0.35936200 1.31649300e+02
-0.32936200 1.52224300e+02
-0.29936200 1.73904800e+02
-0.26936200 1.98452600e+02
-0.23936200 2.61155600e+02
-0.20936200 4.00009800e+02
-0.17936200 6.59769300e+02
-0.14936200 9.52794000e+02
-0.11936200 1.06196000e+03
-0.08936210 8.41781000e+02
-0.05936210 5.41489000e+02
-0.02936210 3.79725000e+02
0.00063795 3.36823200e+02
0.03063790 3.49461600e+02
0.06063790 3.39856200e+02
0.09145400 2.46943400e+02
0.12145400 1.85471200e+02
0.15145400 1.66193500e+02
0.18145400 1.63354300e+02
0.21145400 1.74792200e+02
0.24145400 1.64659400e+02
0.27145400 1.45196800e+02
0.30145400 1.39328900e+02
0.33145400 1.11697200e+02
0.36145400 7.72742000e+01
0.39145400 5.77585000e+01
0.42145400 4.68920000e+01
0.45145400 3.83466000e+01
0.48145400 3.15529000e+01
0.51145400 2.72528400e+01
0.54145400 2.44851400e+01
0.57145400 2.29766700e+01
0.60145400 2.35495100e+01
0.63145400 2.43931800e+01
0.66145400 2.15926500e+01
0.69145400 1.81985700e+01
0.72145400 1.57946100e+01
0.75145400 1.44830200e+01
0.78145400 1.38707800e+01
