# E(MeV)  S_GAMTGAMT(Total=K0+2*K1) for Pu271_DDPCX
-6.39589000 1.27674900e-02
-6.36589000 1.28243700e-02
-6.33589000 1.28820800e-02
-6.30589000 1.29404300e-02
-6.27589000 1.29993400e-02
-6.24589000 1.30587400e-02
-6.21589000 1.31186400e-02
-6.18589000 1.31790400e-02
-6.15589000 1.32399300e-02
-6.12589000 1.33013200e-02
-6.09589000 1.33632000e-02
-6.06589000 1.34256100e-02
-6.03589000 1.34885100e-02
-6.00589000 1.35519200e-02
-5.97589000 1.36158700e-02
-5.94589000 1.36803600e-02
-5.91589000 1.37453900e-02
-5.88589000 1.38109600e-02
-5.85589000 1.38771000e-02
-5.82589000 1.39437900e-02
-5.79589000 1.40110700e-02
-5.76589000 1.40789300e-02
-5.73589000 1.41473900e-02
-5.70589000 1.42164600e-02
-5.67507000 1.42880400e-02
-5.64507000 1.43583600e-02
-5.61507000 1.44293200e-02
-5.58507000 1.45009400e-02
-5.55507000 1.45732000e-02
-5.52507000 1.46461500e-02
-5.49507000 1.47197700e-02
-5.46507000 1.47941100e-02
-5.43507000 1.48691500e-02
-5.40507000 1.49449200e-02
-5.37507000 1.50214400e-02
-5.34507000 1.50987000e-02
-5.31507000 1.51767700e-02
-5.28507000 1.52556100e-02
-5.25507000 1.53352900e-02
-5.22507000 1.54158000e-02
-5.19507000 1.54971700e-02
-5.16507000 1.55794500e-02
-5.13507000 1.56626300e-02
-5.10507000 1.57467600e-02
-5.07507000 1.58319100e-02
-5.04507000 1.59180500e-02
-5.01507000 1.60052800e-02
-4.98507000 1.60936400e-02
-4.95426000 1.61856700e-02
-4.92426000 1.62765600e-02
-4.89426000 1.63688600e-02
-4.86426000 1.64627300e-02
-4.83426000 1.65584500e-02
-4.80426000 1.66565000e-02
-4.77426000 1.67577400e-02
-4.74426000 1.68637800e-02
-4.71426000 1.69745100e-02
-4.68426000 1.70859700e-02
-4.65426000 1.72062200e-02
-4.62426000 1.73274900e-02
-4.59426000 1.74246200e-02
-4.56426000 1.75250100e-02
-4.53426000 1.76412000e-02
-4.50426000 1.77683700e-02
-4.47426000 1.78967000e-02
-4.44426000 1.80304900e-02
-4.41426000 1.81801800e-02
-4.38426000 1.83514800e-02
-4.35426000 1.85534100e-02
-4.32426000 1.88039600e-02
-4.29426000 1.91401200e-02
-4.26426000 1.96394900e-02
-4.23344000 2.04445800e-02
-4.20344000 2.13982000e-02
-4.17344000 2.22919700e-02
-4.14344000 2.35097300e-02
-4.11344000 2.46625200e-02
-4.08344000 2.61954100e-02
-4.05344000 2.69422500e-02
-4.02344000 2.69161100e-02
-3.99344000 2.54479100e-02
-3.96344000 2.36367300e-02
-3.93344000 2.23395700e-02
-3.90344000 2.17300500e-02
-3.87344000 2.15884100e-02
-3.84344000 2.17997900e-02
-3.81344000 2.24503800e-02
-3.78344000 2.38083900e-02
-3.75344000 2.54638000e-02
-3.72344000 2.51069500e-02
-3.69344000 2.34886700e-02
-3.66344000 2.25040600e-02
-3.63344000 2.20699500e-02
-3.60344000 2.19025000e-02
-3.57344000 2.18647900e-02
-3.54344000 2.18959200e-02
-3.51263000 2.19694000e-02
-3.48263000 2.20663900e-02
-3.45263000 2.21803200e-02
-3.42263000 2.23065000e-02
-3.39263000 2.24420600e-02
-3.36263000 2.25851600e-02
-3.33263000 2.27345700e-02
-3.30263000 2.28894600e-02
-3.27263000 2.30493100e-02
-3.24263000 2.32137200e-02
-3.21263000 2.33824400e-02
-3.18263000 2.35553200e-02
-3.15263000 2.37322600e-02
-3.12263000 2.39132100e-02
-3.09263000 2.40982400e-02
-3.06263000 2.42873400e-02
-3.03263000 2.44806500e-02
-3.00263000 2.46783100e-02
-2.97263000 2.48805200e-02
-2.94263000 2.50875700e-02
-2.91263000 2.52997900e-02
-2.88263000 2.55176500e-02
-2.85263000 2.57418400e-02
-2.82263000 2.59732900e-02
-2.79181000 2.62199800e-02
-2.76181000 2.64709900e-02
-2.73181000 2.67360300e-02
-2.70181000 2.70206900e-02
-2.67181000 2.73350600e-02
-2.64181000 2.76987800e-02
-2.61181000 2.81533500e-02
-2.58181000 2.87917800e-02
-2.55181000 2.97968800e-02
-2.52181000 3.11238400e-02
-2.49181000 3.15698000e-02
-2.46181000 3.14488000e-02
-2.43181000 3.11852000e-02
-2.40181000 3.07624000e-02
-2.37181000 3.06791000e-02
-2.34181000 3.08986000e-02
-2.31181000 3.13597000e-02
-2.28181000 3.18340000e-02
-2.25181000 3.19618000e-02
-2.22181000 3.21192000e-02
-2.19181000 3.24776000e-02
-2.16181000 3.30416000e-02
-2.13181000 3.38377000e-02
-2.10181000 3.48504000e-02
-2.07099000 3.59860000e-02
-2.04099000 3.70515000e-02
-2.01099000 3.76430000e-02
-1.98099000 3.84635000e-02
-1.95099000 3.91355000e-02
-1.92099000 3.99446000e-02
-1.89099000 4.11940000e-02
-1.86099000 4.14590000e-02
-1.83099000 4.09847000e-02
-1.80099000 4.09549000e-02
-1.77099000 4.07026000e-02
-1.74099000 4.04495000e-02
-1.71099000 4.07800000e-02
-1.68099000 4.17651000e-02
-1.65099000 4.36479000e-02
-1.62099000 4.70775000e-02
-1.59099000 5.19595000e-02
-1.56099000 5.45162000e-02
-1.53099000 5.16839000e-02
-1.50099000 4.80561000e-02
-1.47099000 4.62496000e-02
-1.44099000 4.56550000e-02
-1.41099000 4.56858000e-02
-1.38099000 4.60415000e-02
-1.35018000 4.65690000e-02
-1.32018000 4.72047000e-02
-1.29018000 4.79600000e-02
-1.26018000 4.88173000e-02
-1.23018000 4.97764000e-02
-1.20018000 5.08383000e-02
-1.17018000 5.20150000e-02
-1.14018000 5.33449000e-02
-1.11018000 5.48801000e-02
-1.08018000 5.66988000e-02
-1.05018000 5.89260000e-02
-1.02018000 6.17789000e-02
-0.99017800 6.56610000e-02
-0.96017800 7.13960000e-02
-0.93017800 8.05642000e-02
-0.90017800 9.58103000e-02
-0.87017800 1.23174300e-01
-0.84017800 1.63501900e-01
-0.81017800 1.78116900e-01
-0.78017800 1.52174900e-01
-0.75017800 1.19796800e-01
-0.72017800 1.03840200e-01
-0.69017800 9.98362000e-02
-0.66017800 1.02756300e-01
-0.62936200 1.14078800e-01
-0.59936200 1.21618600e-01
-0.56936200 1.16092600e-01
-0.53936200 1.06625400e-01
-0.50936200 9.80520000e-02
-0.47936200 9.45818000e-02
-0.44936200 9.47206000e-02
-0.41936200 9.66720000e-02
-0.38936200 9.86379000e-02
-0.35936200 1.02122900e-01
-0.32936200 1.08851200e-01
-0.29936200 1.19051700e-01
-0.26936200 1.26822600e-01
-0.23936200 1.33607600e-01
-0.20936200 1.40349200e-01
-0.17936200 1.41496300e-01
-0.14936200 1.38599200e-01
-0.11936200 1.34660600e-01
-0.08936210 1.33946900e-01
-0.05936210 1.36214000e-01
-0.02936210 1.40474600e-01
0.00063795 1.45774600e-01
0.03063790 1.52292500e-01
0.06063790 1.59764700e-01
0.09145400 1.67539900e-01
0.12145400 1.76014900e-01
0.15145400 1.85127200e-01
0.18145400 1.94873200e-01
0.21145400 2.06371400e-01
0.24145400 2.20112200e-01
0.27145400 2.36137500e-01
0.30145400 2.54769800e-01
0.33145400 2.76718000e-01
0.36145400 3.00293000e-01
0.39145400 3.28381000e-01
0.42145400 3.65303000e-01
0.45145400 4.12616000e-01
0.48145400 4.66682000e-01
0.51145400 5.28809000e-01
0.54145400 6.18568000e-01
0.57145400 7.56058000e-01
0.60145400 9.71768000e-01
0.63145400 1.25825300e+00
0.66145400 1.59392600e+00
0.69145400 1.75710100e+00
0.72145400 1.87624700e+00
0.75145400 2.11989800e+00
0.78145400 2.37597000e+00
