# E(MeV)  S_GAMTGAMT(K=1) for Pu271_DDPCX
-6.39589000 4.25981000e-03
-6.36589000 4.27884000e-03
-6.33589000 4.29813000e-03
-6.30589000 4.31762000e-03
-6.27589000 4.33730000e-03
-6.24589000 4.35714000e-03
-6.21589000 4.37714000e-03
-6.18589000 4.39731000e-03
-6.15589000 4.41764000e-03
-6.12589000 4.43814000e-03
-6.09589000 4.45880000e-03
-6.06589000 4.47964000e-03
-6.03589000 4.50064000e-03
-6.00589000 4.52181000e-03
-5.97589000 4.54316000e-03
-5.94589000 4.56469000e-03
-5.91589000 4.58640000e-03
-5.88589000 4.60829000e-03
-5.85589000 4.63037000e-03
-5.82589000 4.65263000e-03
-5.79589000 4.67509000e-03
-5.76589000 4.69774000e-03
-5.73589000 4.72059000e-03
-5.70589000 4.74364000e-03
-5.67507000 4.76753000e-03
-5.64507000 4.79100000e-03
-5.61507000 4.81468000e-03
-5.58507000 4.83858000e-03
-5.55507000 4.86269000e-03
-5.52507000 4.88703000e-03
-5.49507000 4.91159000e-03
-5.46507000 4.93639000e-03
-5.43507000 4.96142000e-03
-5.40507000 4.98669000e-03
-5.37507000 5.01221000e-03
-5.34507000 5.03797000e-03
-5.31507000 5.06400000e-03
-5.28507000 5.09028000e-03
-5.25507000 5.11684000e-03
-5.22507000 5.14367000e-03
-5.19507000 5.17078000e-03
-5.16507000 5.19819000e-03
-5.13507000 5.22589000e-03
-5.10507000 5.25390000e-03
-5.07507000 5.28224000e-03
-5.04507000 5.31090000e-03
-5.01507000 5.33991000e-03
-4.98507000 5.36928000e-03
-4.95426000 5.39985000e-03
-4.92426000 5.43002000e-03
-4.89426000 5.46063000e-03
-4.86426000 5.49172000e-03
-4.83426000 5.52337000e-03
-4.80426000 5.55570000e-03
-4.77426000 5.58893000e-03
-4.74426000 5.62349000e-03
-4.71426000 5.65942000e-03
-4.68426000 5.69564000e-03
-4.65426000 5.73409000e-03
-4.62426000 5.77336000e-03
-4.59426000 5.80648000e-03
-4.56426000 5.84018000e-03
-4.53426000 5.87814000e-03
-4.50426000 5.91930000e-03
-4.47426000 5.96118000e-03
-4.44426000 6.00410000e-03
-4.41426000 6.05123000e-03
-4.38426000 6.10439000e-03
-4.35426000 6.16582000e-03
-4.32426000 6.24003000e-03
-4.29426000 6.33615000e-03
-4.26426000 6.47260000e-03
-4.23344000 6.67925000e-03
-4.20344000 6.93338000e-03
-4.17344000 7.31961000e-03
-4.14344000 7.81183000e-03
-4.11344000 7.99143000e-03
-4.08344000 8.24938000e-03
-4.05344000 8.60919000e-03
-4.02344000 8.66125000e-03
-3.99344000 8.20765000e-03
-3.96344000 7.71733000e-03
-3.93344000 7.34270000e-03
-3.90344000 7.16222000e-03
-3.87344000 7.11631000e-03
-3.84344000 7.16565000e-03
-3.81344000 7.32389000e-03
-3.78344000 7.66417000e-03
-3.75344000 8.19930000e-03
-3.72344000 8.28279000e-03
-3.69344000 7.80719000e-03
-3.66344000 7.48532000e-03
-3.63344000 7.34452000e-03
-3.60344000 7.29268000e-03
-3.57344000 7.28354000e-03
-3.54344000 7.29670000e-03
-3.51263000 7.32348000e-03
-3.48263000 7.35761000e-03
-3.45263000 7.39706000e-03
-3.42263000 7.44035000e-03
-3.39263000 7.48658000e-03
-3.36263000 7.53518000e-03
-3.33263000 7.58577000e-03
-3.30263000 7.63810000e-03
-3.27263000 7.69201000e-03
-3.24263000 7.74739000e-03
-3.21263000 7.80416000e-03
-3.18263000 7.86228000e-03
-3.15263000 7.92173000e-03
-3.12263000 7.98250000e-03
-3.09263000 8.04462000e-03
-3.06263000 8.10809000e-03
-3.03263000 8.17297000e-03
-3.00263000 8.23931000e-03
-2.97263000 8.30719000e-03
-2.94263000 8.37672000e-03
-2.91263000 8.44803000e-03
-2.88263000 8.52130000e-03
-2.85263000 8.59680000e-03
-2.82263000 8.67490000e-03
-2.79181000 8.75839000e-03
-2.76181000 8.84372000e-03
-2.73181000 8.93443000e-03
-2.70181000 9.03288000e-03
-2.67181000 9.14343000e-03
-2.64181000 9.27470000e-03
-2.61181000 9.44526000e-03
-2.58181000 9.69732000e-03
-2.55181000 1.01131000e-02
-2.52181000 1.06493000e-02
-2.49181000 1.06622000e-02
-2.46181000 1.03138000e-02
-2.43181000 1.01422000e-02
-2.40181000 1.01216000e-02
-2.37181000 1.01869000e-02
-2.34181000 1.03220000e-02
-2.31181000 1.05370000e-02
-2.28181000 1.07370000e-02
-2.25181000 1.07494000e-02
-2.22181000 1.07635000e-02
-2.19181000 1.08613000e-02
-2.16181000 1.10334000e-02
-2.13181000 1.12685000e-02
-2.10181000 1.15630000e-02
-2.07099000 1.20497000e-02
-2.04099000 1.25967000e-02
-2.01099000 1.28127000e-02
-1.98099000 1.30110000e-02
-1.95099000 1.30007000e-02
-1.92099000 1.30860000e-02
-1.89099000 1.34450000e-02
-1.86099000 1.35535000e-02
-1.83099000 1.34552000e-02
-1.80099000 1.34199000e-02
-1.77099000 1.33809000e-02
-1.74099000 1.34222000e-02
-1.71099000 1.36263000e-02
-1.68099000 1.40381000e-02
-1.65099000 1.47796000e-02
-1.62099000 1.61090000e-02
-1.59099000 1.79436000e-02
-1.56099000 1.90011000e-02
-1.53099000 1.79897000e-02
-1.50099000 1.64656000e-02
-1.47099000 1.56673000e-02
-1.44099000 1.53657000e-02
-1.41099000 1.53153000e-02
-1.38099000 1.53935000e-02
-1.35018000 1.55522000e-02
-1.32018000 1.57596000e-02
-1.29018000 1.60072000e-02
-1.26018000 1.62885000e-02
-1.23018000 1.66043000e-02
-1.20018000 1.69541000e-02
-1.17018000 1.73412000e-02
-1.14018000 1.77802000e-02
-1.11018000 1.82901000e-02
-1.08018000 1.88991000e-02
-1.05018000 1.96522000e-02
-1.02018000 2.06289000e-02
-0.99017800 2.19802000e-02
-0.96017800 2.40224000e-02
-0.93017800 2.73520000e-02
-0.90017800 3.28863000e-02
-0.87017800 4.28995000e-02
-0.84017800 5.65418000e-02
-0.81017800 5.45218000e-02
-0.78017800 4.18515000e-02
-0.75017800 3.47029000e-02
-0.72017800 3.24476000e-02
-0.69017800 3.29650000e-02
-0.66017800 3.52242000e-02
-0.62936200 4.04430000e-02
-0.59936200 4.23672000e-02
-0.56936200 3.68646000e-02
-0.53936200 3.26571000e-02
-0.50936200 3.09354000e-02
-0.47936200 3.05704000e-02
-0.44936200 3.10313000e-02
-0.41936200 3.18333000e-02
-0.38936200 3.21898000e-02
-0.35936200 3.27124000e-02
-0.32936200 3.38309000e-02
-0.29936200 3.57152000e-02
-0.26936200 3.88782000e-02
-0.23936200 4.37629000e-02
-0.20936200 4.74196000e-02
-0.17936200 4.67619000e-02
-0.14936200 4.41841000e-02
-0.11936200 4.30762000e-02
-0.08936210 4.33971000e-02
-0.05936210 4.45634000e-02
-0.02936210 4.62438000e-02
0.00063795 4.80915000e-02
0.03063790 5.02859000e-02
0.06063790 5.27785000e-02
0.09145400 5.52630000e-02
0.12145400 5.80400000e-02
0.15145400 6.09902000e-02
0.18145400 6.40134000e-02
0.21145400 6.76283000e-02
0.24145400 7.20166000e-02
0.27145400 7.71898000e-02
0.30145400 8.33277000e-02
0.33145400 9.06146000e-02
0.36145400 9.79350000e-02
0.39145400 1.06438000e-01
0.42145400 1.17956000e-01
0.45145400 1.33553000e-01
0.48145400 1.51583000e-01
0.51145400 1.70269000e-01
0.54145400 1.96777000e-01
0.57145400 2.36795000e-01
0.60145400 2.98776000e-01
0.63145400 3.77169000e-01
0.66145400 4.75916000e-01
0.69145400 5.02583000e-01
0.72145400 4.55659000e-01
0.75145400 4.63369000e-01
0.78145400 5.43335000e-01
