# E(MeV)  S_GAMTGAMT(K=0) for Pu271_DDPCX
-6.39589000 4.24787000e-03
-6.36589000 4.26669000e-03
-6.33589000 4.28582000e-03
-6.30589000 4.30519000e-03
-6.27589000 4.32474000e-03
-6.24589000 4.34446000e-03
-6.21589000 4.36436000e-03
-6.18589000 4.38442000e-03
-6.15589000 4.40465000e-03
-6.12589000 4.42504000e-03
-6.09589000 4.44560000e-03
-6.06589000 4.46633000e-03
-6.03589000 4.48723000e-03
-6.00589000 4.50830000e-03
-5.97589000 4.52955000e-03
-5.94589000 4.55098000e-03
-5.91589000 4.57259000e-03
-5.88589000 4.59438000e-03
-5.85589000 4.61636000e-03
-5.82589000 4.63853000e-03
-5.79589000 4.66089000e-03
-5.76589000 4.68345000e-03
-5.73589000 4.70621000e-03
-5.70589000 4.72918000e-03
-5.67507000 4.75298000e-03
-5.64507000 4.77636000e-03
-5.61507000 4.79996000e-03
-5.58507000 4.82378000e-03
-5.55507000 4.84782000e-03
-5.52507000 4.87209000e-03
-5.49507000 4.89659000e-03
-5.46507000 4.92133000e-03
-5.43507000 4.94631000e-03
-5.40507000 4.97154000e-03
-5.37507000 4.99702000e-03
-5.34507000 5.02276000e-03
-5.31507000 5.04877000e-03
-5.28507000 5.07505000e-03
-5.25507000 5.10161000e-03
-5.22507000 5.12846000e-03
-5.19507000 5.15561000e-03
-5.16507000 5.18307000e-03
-5.13507000 5.21085000e-03
-5.10507000 5.23896000e-03
-5.07507000 5.26743000e-03
-5.04507000 5.29625000e-03
-5.01507000 5.32546000e-03
-4.98507000 5.35508000e-03
-4.95426000 5.38597000e-03
-4.92426000 5.41652000e-03
-4.89426000 5.44760000e-03
-4.86426000 5.47929000e-03
-4.83426000 5.51171000e-03
-4.80426000 5.54510000e-03
-4.77426000 5.57988000e-03
-4.74426000 5.61680000e-03
-4.71426000 5.65567000e-03
-4.68426000 5.69469000e-03
-4.65426000 5.73804000e-03
-4.62426000 5.78077000e-03
-4.59426000 5.81166000e-03
-4.56426000 5.84465000e-03
-4.53426000 5.88492000e-03
-4.50426000 5.92977000e-03
-4.47426000 5.97434000e-03
-4.44426000 6.02229000e-03
-4.41426000 6.07772000e-03
-4.38426000 6.14270000e-03
-4.35426000 6.22177000e-03
-4.32426000 6.32390000e-03
-4.29426000 6.46782000e-03
-4.26426000 6.69429000e-03
-4.23344000 7.08608000e-03
-4.20344000 7.53144000e-03
-4.17344000 7.65275000e-03
-4.14344000 7.88607000e-03
-4.11344000 8.67966000e-03
-4.08344000 9.69665000e-03
-4.05344000 9.72387000e-03
-4.02344000 9.59361000e-03
-3.99344000 9.03261000e-03
-3.96344000 8.20207000e-03
-3.93344000 7.65417000e-03
-3.90344000 7.40561000e-03
-3.87344000 7.35579000e-03
-3.84344000 7.46849000e-03
-3.81344000 7.80260000e-03
-3.78344000 8.48005000e-03
-3.75344000 9.06520000e-03
-3.72344000 8.54137000e-03
-3.69344000 7.87429000e-03
-3.66344000 7.53342000e-03
-3.63344000 7.38091000e-03
-3.60344000 7.31714000e-03
-3.57344000 7.29771000e-03
-3.54344000 7.30252000e-03
-3.51263000 7.32244000e-03
-3.48263000 7.35117000e-03
-3.45263000 7.38620000e-03
-3.42263000 7.42580000e-03
-3.39263000 7.46890000e-03
-3.36263000 7.51480000e-03
-3.33263000 7.56303000e-03
-3.30263000 7.61326000e-03
-3.27263000 7.66529000e-03
-3.24263000 7.71894000e-03
-3.21263000 7.77412000e-03
-3.18263000 7.83076000e-03
-3.15263000 7.88880000e-03
-3.12263000 7.94821000e-03
-3.09263000 8.00900000e-03
-3.06263000 8.07116000e-03
-3.03263000 8.13471000e-03
-3.00263000 8.19969000e-03
-2.97263000 8.26614000e-03
-2.94263000 8.33413000e-03
-2.91263000 8.40373000e-03
-2.88263000 8.47505000e-03
-2.85263000 8.54824000e-03
-2.82263000 8.62349000e-03
-2.79181000 8.70320000e-03
-2.76181000 8.78355000e-03
-2.73181000 8.86717000e-03
-2.70181000 8.95493000e-03
-2.67181000 9.04820000e-03
-2.64181000 9.14938000e-03
-2.61181000 9.26283000e-03
-2.58181000 9.39714000e-03
-2.55181000 9.57068000e-03
-2.52181000 9.82524000e-03
-2.49181000 1.02454000e-02
-2.46181000 1.08212000e-02
-2.43181000 1.09008000e-02
-2.40181000 1.05192000e-02
-2.37181000 1.03053000e-02
-2.34181000 1.02546000e-02
-2.31181000 1.02857000e-02
-2.28181000 1.03600000e-02
-2.25181000 1.04630000e-02
-2.22181000 1.05922000e-02
-2.19181000 1.07550000e-02
-2.16181000 1.09748000e-02
-2.13181000 1.13007000e-02
-2.10181000 1.17244000e-02
-2.07099000 1.18866000e-02
-2.04099000 1.18581000e-02
-2.01099000 1.20176000e-02
-1.98099000 1.24415000e-02
-1.95099000 1.31341000e-02
-1.92099000 1.37726000e-02
-1.89099000 1.43040000e-02
-1.86099000 1.43520000e-02
-1.83099000 1.40743000e-02
-1.80099000 1.41151000e-02
-1.77099000 1.39408000e-02
-1.74099000 1.36051000e-02
-1.71099000 1.35274000e-02
-1.68099000 1.36889000e-02
-1.65099000 1.40887000e-02
-1.62099000 1.48595000e-02
-1.59099000 1.60723000e-02
-1.56099000 1.65140000e-02
-1.53099000 1.57045000e-02
-1.50099000 1.51249000e-02
-1.47099000 1.49150000e-02
-1.44099000 1.49236000e-02
-1.41099000 1.50552000e-02
-1.38099000 1.52545000e-02
-1.35018000 1.54646000e-02
-1.32018000 1.56855000e-02
-1.29018000 1.59456000e-02
-1.26018000 1.62403000e-02
-1.23018000 1.65678000e-02
-1.20018000 1.69301000e-02
-1.17018000 1.73326000e-02
-1.14018000 1.77845000e-02
-1.11018000 1.82999000e-02
-1.08018000 1.89006000e-02
-1.05018000 1.96216000e-02
-1.02018000 2.05211000e-02
-0.99017800 2.17006000e-02
-0.96017800 2.33512000e-02
-0.93017800 2.58602000e-02
-0.90017800 3.00377000e-02
-0.87017800 3.73753000e-02
-0.84017800 5.04183000e-02
-0.81017800 6.90733000e-02
-0.78017800 6.84719000e-02
-0.75017800 5.03910000e-02
-0.72017800 3.89450000e-02
-0.69017800 3.39062000e-02
-0.66017800 3.23079000e-02
-0.62936200 3.31928000e-02
-0.59936200 3.68842000e-02
-0.56936200 4.23634000e-02
-0.53936200 4.13112000e-02
-0.50936200 3.61812000e-02
-0.47936200 3.34410000e-02
-0.44936200 3.26580000e-02
-0.41936200 3.30054000e-02
-0.38936200 3.42583000e-02
-0.35936200 3.66981000e-02
-0.32936200 4.11894000e-02
-0.29936200 4.76213000e-02
-0.26936200 4.90662000e-02
-0.23936200 4.60818000e-02
-0.20936200 4.55100000e-02
-0.17936200 4.79725000e-02
-0.14936200 5.02310000e-02
-0.11936200 4.85082000e-02
-0.08936210 4.71527000e-02
-0.05936210 4.70872000e-02
-0.02936210 4.79870000e-02
0.00063795 4.95916000e-02
0.03063790 5.17207000e-02
0.06063790 5.42077000e-02
0.09145400 5.70139000e-02
0.12145400 5.99349000e-02
0.15145400 6.31468000e-02
0.18145400 6.68464000e-02
0.21145400 7.11148000e-02
0.24145400 7.60790000e-02
0.27145400 8.17579000e-02
0.30145400 8.81144000e-02
0.33145400 9.54888000e-02
0.36145400 1.04423000e-01
0.39145400 1.15505000e-01
0.42145400 1.29391000e-01
0.45145400 1.45510000e-01
0.48145400 1.63516000e-01
0.51145400 1.88271000e-01
0.54145400 2.25014000e-01
0.57145400 2.82468000e-01
0.60145400 3.74216000e-01
0.63145400 5.03915000e-01
0.66145400 6.42094000e-01
0.69145400 7.51935000e-01
0.72145400 9.64929000e-01
0.75145400 1.19316000e+00
0.78145400 1.28930000e+00
