# E(MeV)  S_GAMTGAMT(Total=K0+2*K1) for Pu291_DDPCX
-12.78900000 9.36287000e-03
-12.75900000 9.40154000e-03
-12.72900000 9.44533000e-03
-12.69900000 9.49730000e-03
-12.66900000 9.54256000e-03
-12.63900000 9.56080000e-03
-12.60900000 9.57928000e-03
-12.57900000 9.60579000e-03
-12.54900000 9.63679000e-03
-12.51900000 9.67020000e-03
-12.48900000 9.70448000e-03
-12.45900000 9.73860000e-03
-12.42900000 9.77335000e-03
-12.39900000 9.80883000e-03
-12.36900000 9.84486000e-03
-12.33900000 9.88140000e-03
-12.30900000 9.91845000e-03
-12.27900000 9.95611000e-03
-12.24900000 9.99460000e-03
-12.21900000 1.00343900e-02
-12.18900000 1.00765700e-02
-12.15900000 1.01233900e-02
-12.12900000 1.01745800e-02
-12.09900000 1.02130600e-02
-12.06900000 1.02396700e-02
-12.03900000 1.02709500e-02
-12.00900000 1.03068300e-02
-11.97900000 1.03451400e-02
-11.94900000 1.03848400e-02
-11.91900000 1.04255100e-02
-11.88900000 1.04669200e-02
-11.85900000 1.05090200e-02
-11.82900000 1.05517800e-02
-11.79900000 1.05952000e-02
-11.76900000 1.06392800e-02
-11.73900000 1.06840800e-02
-11.70900000 1.07296100e-02
-11.67900000 1.07759300e-02
-11.64900000 1.08231200e-02
-11.61900000 1.08712200e-02
-11.58900000 1.09203500e-02
-11.55900000 1.09705600e-02
-11.52900000 1.10219700e-02
-11.49900000 1.10747400e-02
-11.46900000 1.11289900e-02
-11.42880000 1.12042000e-02
-11.39880000 1.12627500e-02
-11.36880000 1.13235500e-02
-11.33880000 1.13869700e-02
-11.30880000 1.14534800e-02
-11.27880000 1.15236200e-02
-11.24880000 1.15981700e-02
-11.21880000 1.16781200e-02
-11.18880000 1.17649400e-02
-11.15880000 1.18608700e-02
-11.12880000 1.19695300e-02
-11.09880000 1.20947300e-02
-11.06880000 1.22301500e-02
-11.03880000 1.23773300e-02
-11.00880000 1.25602500e-02
-10.97880000 1.27970100e-02
-10.94880000 1.31150200e-02
-10.91880000 1.35683300e-02
-10.88880000 1.42685000e-02
-10.85880000 1.54529400e-02
-10.82880000 1.75187900e-02
-10.79880000 2.05138200e-02
-10.76880000 2.38844200e-02
-10.73880000 2.48830400e-02
-10.70880000 2.35858600e-02
-10.67880000 2.18749000e-02
-10.64880000 2.12262400e-02
-10.61880000 2.27899300e-02
-10.58880000 2.52470900e-02
-10.55880000 2.40955300e-02
-10.52880000 2.27796400e-02
-10.49880000 2.27079200e-02
-10.46880000 2.12850100e-02
-10.43880000 2.04281800e-02
-10.40880000 2.13496100e-02
-10.37880000 2.45557700e-02
-10.34880000 2.88886800e-02
-10.31880000 3.11161200e-02
-10.28880000 3.06280800e-02
-10.25880000 2.62627800e-02
-10.22880000 2.22726600e-02
-10.19880000 2.06657600e-02
-10.16880000 2.07302100e-02
-10.13880000 2.18859600e-02
-10.10880000 2.41767000e-02
-10.06870000 3.18800500e-02
-10.03870000 4.00997000e-02
-10.00870000 4.11269000e-02
-9.97871000 3.98096400e-02
-9.94871000 3.92624300e-02
-9.91871000 4.18531700e-02
-9.88871000 4.79736000e-02
-9.85871000 5.70283000e-02
-9.82871000 6.71533000e-02
-9.79871000 6.60966000e-02
-9.76871000 5.38586000e-02
-9.73871000 4.21912000e-02
-9.70871000 3.18929900e-02
-9.67871000 2.56892000e-02
-9.64871000 2.23789000e-02
-9.61871000 2.06933900e-02
-9.58871000 2.00027800e-02
-9.55871000 1.97213900e-02
-9.52871000 1.93594100e-02
-9.49871000 1.94532700e-02
-9.46871000 1.96884300e-02
-9.43871000 1.90074900e-02
-9.40871000 1.83118200e-02
-9.37871000 1.81078700e-02
-9.34871000 1.82872600e-02
-9.31871000 1.88321800e-02
-9.28871000 1.98876400e-02
-9.25871000 2.17855600e-02
-9.22871000 2.49123700e-02
-9.19871000 3.01209000e-02
-9.16871000 3.75414000e-02
-9.13871000 4.25080000e-02
-9.10871000 4.04710000e-02
-9.07871000 3.34184600e-02
-9.04871000 2.88401400e-02
-9.01871000 2.62377600e-02
-8.98871000 2.58119400e-02
-8.95871000 2.72676100e-02
-8.92871000 2.84114600e-02
-8.89871000 2.89155800e-02
-8.86871000 2.83936500e-02
-8.83871000 2.93152000e-02
-8.80871000 3.18578800e-02
-8.77871000 3.47094100e-02
-8.74871000 3.44873000e-02
-8.70859000 3.48306000e-02
-8.67859000 3.85907000e-02
-8.64859000 4.13451000e-02
-8.61859000 4.01794200e-02
-8.58859000 3.70248200e-02
-8.55859000 3.37275400e-02
-8.52859000 3.27988000e-02
-8.49859000 3.35324000e-02
-8.46859000 3.31848000e-02
-8.43859000 3.11441400e-02
-8.40859000 2.93836600e-02
-8.37859000 2.74275200e-02
-8.34859000 2.66005000e-02
-8.31859000 2.72375200e-02
-8.28859000 2.94665400e-02
-8.25859000 3.35357000e-02
-8.22859000 3.92376000e-02
-8.19859000 4.85122000e-02
-8.16859000 6.22239000e-02
-8.13859000 6.83086000e-02
-8.10859000 7.02534000e-02
-8.07859000 7.75776000e-02
-8.04859000 8.56315000e-02
-8.01859000 1.09262200e-01
-7.98859000 1.23133300e-01
-7.95859000 9.12396000e-02
-7.92859000 6.17596000e-02
-7.89859000 4.65468000e-02
-7.86859000 3.89734000e-02
-7.83859000 3.48129600e-02
-7.80859000 3.22137000e-02
-7.77859000 3.06324600e-02
-7.74859000 2.99402400e-02
-7.71859000 2.95463800e-02
-7.68859000 2.96963600e-02
-7.65859000 3.13937000e-02
-7.62859000 3.42591000e-02
-7.59859000 3.72216000e-02
-7.56859000 4.07073000e-02
-7.53859000 4.61089000e-02
-7.50859000 5.40209000e-02
-7.47859000 5.99990000e-02
-7.44859000 6.22992000e-02
-7.41859000 5.68102000e-02
-7.38859000 4.78519000e-02
-7.34847000 4.44561000e-02
-7.31847000 4.94540000e-02
-7.28847000 6.16271000e-02
-7.25847000 7.63824000e-02
-7.22847000 8.02164000e-02
-7.19847000 6.96795000e-02
-7.16847000 5.86905000e-02
-7.13847000 5.31805000e-02
-7.10847000 5.17336000e-02
-7.07847000 5.44456000e-02
-7.04847000 6.14372000e-02
-7.01847000 7.23205000e-02
-6.98847000 9.11761000e-02
-6.95847000 1.14805500e-01
-6.92847000 1.10414300e-01
-6.89847000 8.61665000e-02
-6.86847000 6.83312000e-02
-6.83847000 5.74730000e-02
-6.80847000 5.15527000e-02
-6.77847000 4.79580000e-02
-6.74847000 4.61737000e-02
-6.71847000 4.66468000e-02
-6.68847000 4.94739000e-02
-6.65847000 5.46328000e-02
-6.62847000 5.82588000e-02
-6.59847000 5.62033000e-02
-6.56847000 5.02900000e-02
-6.53847000 4.86721000e-02
-6.50847000 5.08851000e-02
-6.47847000 5.49321000e-02
-6.44847000 6.18423000e-02
-6.41847000 7.52706000e-02
-6.38847000 8.45444000e-02
-6.35847000 7.53818000e-02
-6.32847000 7.04003000e-02
-6.29847000 7.99533000e-02
-6.26847000 9.95960000e-02
-6.23847000 9.42222000e-02
-6.20847000 7.10967000e-02
-6.17847000 5.83092000e-02
-6.14847000 5.37812000e-02
-6.11847000 5.01515000e-02
-6.08847000 4.76687000e-02
-6.05847000 4.91154000e-02
-6.02847000 5.49298000e-02
-5.98834000 6.22280000e-02
-5.95834000 5.89608000e-02
-5.92834000 5.40417000e-02
-5.89834000 4.98595000e-02
-5.86834000 4.81298000e-02
-5.83834000 4.79669000e-02
-5.80834000 4.78864000e-02
-5.77834000 4.82905000e-02
-5.74834000 5.14865000e-02
-5.71834000 5.86045000e-02
-5.68834000 6.94936000e-02
-5.65834000 7.94365000e-02
-5.62834000 8.11271000e-02
-5.59834000 7.34826000e-02
-5.56834000 6.96033000e-02
-5.53834000 7.17124000e-02
-5.50834000 7.80219000e-02
-5.47834000 9.16401000e-02
-5.44834000 1.17183400e-01
-5.41834000 1.48884800e-01
-5.38834000 1.60072600e-01
-5.35834000 1.60315700e-01
-5.32834000 1.50553200e-01
-5.29834000 1.25838400e-01
-5.26834000 1.12004500e-01
-5.23834000 1.19454400e-01
-5.20834000 1.32887100e-01
-5.17834000 1.26574200e-01
-5.14834000 1.01355400e-01
-5.11834000 8.07770000e-02
-5.08834000 6.96864000e-02
-5.05834000 6.47537000e-02
-5.02834000 6.29782000e-02
-4.99834000 6.41287000e-02
-4.96834000 6.95896000e-02
-4.93834000 8.11955000e-02
-4.90834000 9.33604000e-02
-4.87834000 9.66474000e-02
-4.84834000 9.98292000e-02
-4.81834000 1.05378700e-01
-4.78834000 1.12250400e-01
-4.75834000 1.29040400e-01
-4.72834000 1.43220200e-01
-4.69834000 1.31768000e-01
-4.66834000 1.16364100e-01
-4.62822000 1.14517600e-01
-4.59822000 1.26935700e-01
-4.56822000 1.56446700e-01
-4.53822000 1.94586400e-01
-4.50822000 2.30631200e-01
-4.47822000 2.71843400e-01
-4.44822000 2.84170600e-01
-4.41822000 2.60592400e-01
-4.38822000 2.34036800e-01
-4.35822000 2.10264800e-01
-4.32822000 1.92639900e-01
-4.29822000 1.70821500e-01
-4.26822000 1.54930100e-01
-4.23822000 1.45763500e-01
-4.20822000 1.50565900e-01
-4.17822000 1.64217000e-01
-4.14822000 1.83065700e-01
-4.11822000 2.20511300e-01
-4.08822000 2.58880700e-01
-4.05822000 2.34906100e-01
-4.02822000 1.88845800e-01
-3.99822000 1.62151300e-01
-3.96822000 1.54703300e-01
-3.93822000 1.49554300e-01
-3.90822000 1.41047900e-01
-3.87822000 1.37994300e-01
-3.84822000 1.44312400e-01
-3.81822000 1.56620600e-01
-3.78822000 1.72813500e-01
-3.75822000 1.83654900e-01
-3.72822000 1.87793900e-01
-3.69822000 2.01872700e-01
-3.66822000 2.23549700e-01
-3.63822000 2.24625800e-01
-3.60822000 2.13696600e-01
-3.57822000 2.14306100e-01
-3.54822000 2.25436400e-01
-3.51822000 2.52302200e-01
-3.48822000 2.99567600e-01
-3.45822000 3.81188000e-01
-3.42822000 5.25022000e-01
-3.39822000 7.88399000e-01
-3.36822000 1.14504400e+00
-3.33822000 1.28950700e+00
-3.30822000 1.33463600e+00
-3.26810000 1.88679200e+00
-3.23810000 2.36009000e+00
-3.20810000 1.99299800e+00
-3.17810000 1.41346400e+00
-3.14810000 9.70753000e-01
-3.11810000 6.78904000e-01
-3.08810000 5.27789400e-01
-3.05810000 4.48366200e-01
-3.02810000 3.90932600e-01
-2.99810000 3.60087800e-01
-2.96810000 3.49215200e-01
-2.93810000 3.63054400e-01
-2.90810000 3.94205200e-01
-2.87810000 4.12336000e-01
-2.84810000 4.23440000e-01
-2.81810000 4.59388000e-01
-2.78810000 5.28747000e-01
-2.75810000 6.30671000e-01
-2.72810000 8.54732000e-01
-2.69810000 1.31361400e+00
-2.66810000 1.86806400e+00
-2.63810000 1.70606600e+00
-2.60810000 1.15183800e+00
-2.57810000 8.30625000e-01
-2.54810000 7.14045000e-01
-2.51810000 7.36891000e-01
-2.48810000 8.80564000e-01
-2.45810000 1.08204500e+00
-2.42810000 1.21788600e+00
-2.39810000 1.16325300e+00
-2.36810000 1.16654900e+00
-2.33810000 1.15946300e+00
-2.30810000 1.21733800e+00
-2.27810000 1.39724600e+00
-2.24810000 1.58730400e+00
-2.21810000 1.94294800e+00
-2.18810000 2.69844400e+00
-2.15810000 3.81044600e+00
-2.12810000 3.71970800e+00
-2.09810000 2.71743600e+00
-2.06810000 2.27626400e+00
-2.03810000 2.42840000e+00
-2.00810000 3.09674400e+00
-1.97810000 3.78065500e+00
-1.94810000 3.30592100e+00
-1.90798000 2.79208000e+00
-1.87798000 3.08941600e+00
-1.84798000 3.52259600e+00
-1.81798000 3.30033200e+00
-1.78798000 2.91149900e+00
-1.75798000 2.98740400e+00
-1.72798000 3.64636900e+00
-1.69798000 5.23515800e+00
-1.66798000 7.35578200e+00
-1.63798000 7.32484700e+00
-1.60798000 5.95179000e+00
-1.57798000 5.18420000e+00
-1.54798000 5.25342000e+00
-1.51798000 6.83427000e+00
-1.48798000 8.59089000e+00
-1.45798000 7.37817000e+00
-1.42798000 6.11625000e+00
-1.39798000 6.43154000e+00
-1.36798000 6.30363000e+00
-1.33798000 4.57985200e+00
-1.30798000 3.29984400e+00
-1.27798000 2.61454700e+00
-1.24798000 2.40489400e+00
-1.21798000 2.64005200e+00
-1.18798000 3.49161400e+00
-1.15798000 5.38898400e+00
-1.12798000 7.88388600e+00
-1.09798000 7.87975700e+00
-1.06798000 5.96186200e+00
-1.03798000 4.34130000e+00
-1.00798000 3.67881300e+00
-0.97797600 3.09813000e+00
-0.94797600 2.65044400e+00
-0.91797600 2.74778300e+00
-0.88797600 3.14606900e+00
-0.85797600 2.96711300e+00
-0.82797600 2.37495800e+00
-0.79797600 1.96322400e+00
-0.76797600 1.72885200e+00
-0.73797600 1.71923100e+00
-0.70797600 1.85493800e+00
-0.67797600 1.71547800e+00
-0.64797600 1.47705900e+00
-0.61797600 1.34452090e+00
-0.58797600 1.23331110e+00
-0.54785300 1.33791290e+00
-0.51785300 1.57746640e+00
-0.48785300 1.65389760e+00
-0.45785300 1.64601650e+00
-0.42785300 1.84013230e+00
-0.39785300 2.37968400e+00
-0.36785300 3.44262600e+00
-0.33785300 5.47096000e+00
-0.30785300 8.76936450e+00
-0.27785300 9.90807880e+00
-0.24785300 6.99405240e+00
-0.21785300 4.21568000e+00
-0.18785300 2.66314100e+00
-0.15785300 1.85090200e+00
-0.12785300 1.43430200e+00
-0.09785290 1.22735200e+00
-0.06785290 1.16531200e+00
-0.03785290 1.20821100e+00
-0.00785293 1.15891400e+00
0.02214710 1.05205000e+00
0.05214710 9.56324000e-01
0.08214710 8.41645000e-01
0.11214700 7.53169000e-01
0.14214700 6.80096000e-01
0.17214700 6.70937000e-01
0.20214700 7.35011000e-01
0.23214700 8.67598000e-01
0.26214700 9.65297000e-01
0.29214700 1.01768700e+00
0.32214700 1.13978800e+00
0.35214700 1.19616100e+00
0.38214700 1.04709900e+00
0.41214700 9.42323000e-01
0.44214700 9.47442000e-01
0.47214700 1.08107200e+00
0.50214700 1.36366800e+00
0.53214700 1.85599800e+00
0.56214700 2.85034300e+00
0.59214700 4.75377000e+00
0.62214700 6.34355500e+00
0.65214700 5.12378700e+00
0.68214700 3.31695600e+00
0.71214700 2.08929500e+00
0.74214700 1.42542000e+00
0.77214700 1.10288200e+00
