# E(MeV)  S_GAMTGAMT(Total=K0+2*K1) for Ra239_DDPCX
-4.50007000 1.18335100e-02
-4.47007000 1.19203900e-02
-4.44007000 1.20178900e-02
-4.41007000 1.21354100e-02
-4.38007000 1.22943900e-02
-4.35007000 1.25367000e-02
-4.32007000 1.28408700e-02
-4.29007000 1.28782000e-02
-4.26007000 1.27279800e-02
-4.23007000 1.26656300e-02
-4.20007000 1.26766100e-02
-4.17007000 1.27231400e-02
-4.14007000 1.27874400e-02
-4.11007000 1.28617000e-02
-4.08007000 1.29423300e-02
-4.05007000 1.30275100e-02
-4.02007000 1.31163400e-02
-3.96884000 1.32752300e-02
-3.93884000 1.33721600e-02
-3.90884000 1.34718700e-02
-3.87884000 1.35744700e-02
-3.84884000 1.36800100e-02
-3.81884000 1.37886400e-02
-3.78884000 1.39005400e-02
-3.75884000 1.40159700e-02
-3.72884000 1.41351700e-02
-3.69884000 1.42584500e-02
-3.66884000 1.43862300e-02
-3.63884000 1.45189300e-02
-3.60884000 1.46571100e-02
-3.57884000 1.48014100e-02
-3.54884000 1.49526700e-02
-3.51884000 1.51118700e-02
-3.48884000 1.52802800e-02
-3.43761000 1.55942600e-02
-3.40761000 1.57978400e-02
-3.37761000 1.60208100e-02
-3.34761000 1.62697000e-02
-3.31761000 1.65555000e-02
-3.28761000 1.68988200e-02
-3.25761000 1.73423300e-02
-3.22761000 1.79737800e-02
-3.19761000 1.88614300e-02
-3.16761000 1.94832100e-02
-3.13761000 1.95363600e-02
-3.10761000 1.98179200e-02
-3.07761000 2.04967700e-02
-3.04761000 2.16008800e-02
-3.01761000 2.33158500e-02
-2.98761000 2.61114700e-02
-2.95761000 3.10692900e-02
-2.90637000 5.05426000e-02
-2.87637000 6.06830000e-02
-2.84637000 5.91971000e-02
-2.81637000 6.06361000e-02
-2.78637000 5.40850000e-02
-2.75637000 4.31321400e-02
-2.72637000 3.76845800e-02
-2.69637000 3.55978400e-02
-2.66637000 3.52141800e-02
-2.63637000 3.59762800e-02
-2.60637000 3.89496400e-02
-2.57637000 4.44383000e-02
-2.54637000 5.44440200e-02
-2.51637000 7.50413000e-02
-2.48637000 1.02867600e-01
-2.45637000 1.00552600e-01
-2.42637000 8.10366000e-02
-2.37514000 5.40858000e-02
-2.34514000 4.60329000e-02
-2.31514000 4.30848000e-02
-2.28514000 4.31907000e-02
-2.25514000 4.56297000e-02
-2.22514000 5.05755000e-02
-2.19514000 5.90632000e-02
-2.16514000 7.35487000e-02
-2.13514000 9.95708000e-02
-2.10514000 1.49631500e-01
-2.07514000 2.44372800e-01
-2.04514000 3.57844400e-01
-2.01514000 3.66840000e-01
-1.98514000 2.61590700e-01
-1.95514000 1.79169600e-01
-1.92514000 1.30067100e-01
-1.89514000 9.88596000e-02
-1.84390000 8.15866000e-02
-1.81390000 8.70036000e-02
-1.78390000 1.09089500e-01
-1.75390000 1.54502500e-01
-1.72390000 1.93280700e-01
-1.69390000 1.53807400e-01
-1.66390000 1.02245300e-01
-1.63390000 7.46673000e-02
-1.60390000 6.04907000e-02
-1.57390000 5.27445000e-02
-1.54390000 4.87489000e-02
-1.51390000 4.70715000e-02
-1.48390000 4.70248000e-02
-1.45390000 4.83567000e-02
-1.42390000 5.14267000e-02
-1.39390000 5.72551000e-02
-1.36390000 6.78445000e-02
-1.31267000 1.07209000e-01
-1.28267000 1.56847700e-01
-1.25267000 1.81689600e-01
-1.22267000 1.35925100e-01
-1.19267000 9.51649000e-02
-1.16267000 7.51389000e-02
-1.13267000 6.61747000e-02
-1.10267000 6.27146000e-02
-1.07267000 6.22983000e-02
-1.04267000 6.42376000e-02
-1.01267000 6.89265000e-02
-0.98266800 7.69900000e-02
-0.95266800 8.56512000e-02
-0.92266800 9.22918000e-02
-0.89266800 1.03026400e-01
-0.86266800 1.22371700e-01
-0.83266800 1.59138800e-01
-0.78143300 2.69666400e-01
-0.75143300 2.68832000e-01
-0.72143300 2.53115800e-01
-0.69143300 2.83829800e-01
-0.66143300 3.69439800e-01
-0.63143300 5.45274200e-01
-0.60143300 9.05526000e-01
-0.57143300 1.45887860e+00
-0.54143300 1.56448780e+00
-0.51143300 1.22291920e+00
-0.48143300 9.59298800e-01
-0.45143300 7.79996600e-01
-0.42143300 5.66078800e-01
-0.39143300 3.80039600e-01
-0.36143300 2.84199000e-01
-0.33143300 2.50555400e-01
-0.30143300 2.59900600e-01
-0.25019900 2.46344800e-01
-0.22019900 1.91138400e-01
-0.19019900 1.50378300e-01
-0.16019900 1.32657000e-01
-0.13019900 1.32485300e-01
-0.10019900 1.49330400e-01
-0.07019900 1.62752700e-01
-0.04019900 1.39944800e-01
-0.01019900 1.15026600e-01
0.01980100 1.01658500e-01
0.04980100 9.68844000e-02
0.07980100 9.58849000e-02
0.10980100 9.54411000e-02
0.13980100 9.73334000e-02
0.16980100 9.97003000e-02
0.19980100 1.02916700e-01
0.22980100 1.10570900e-01
0.28103600 1.41973700e-01
0.31103600 1.81123400e-01
0.34103600 2.37791600e-01
0.37103600 2.68558400e-01
0.40103600 2.73774800e-01
0.43103600 3.13573700e-01
0.46103600 4.05253900e-01
0.49103600 4.93194300e-01
0.52103600 4.50653900e-01
0.55103600 3.99019000e-01
0.58103600 3.50411000e-01
0.61103600 3.14471800e-01
0.64103600 3.01199200e-01
0.67103600 3.22462600e-01
0.70103600 3.44766200e-01
0.73103600 3.50866600e-01
0.76103600 3.79968400e-01
