# E(MeV)  S_GAMTGAMT(K=1) for Rb90_DDPCX
-7.75699000 5.20931000e-04
-7.72699000 7.26461000e-04
-7.69699000 8.40048000e-04
-7.66699000 9.03419000e-04
-7.63699000 9.35575000e-04
-7.60699000 9.45130000e-04
-7.57699000 9.35186000e-04
-7.54699000 9.05132000e-04
-7.51699000 8.50853000e-04
-7.48699000 7.63646000e-04
-7.45699000 6.27309000e-04
-7.42699000 4.11616000e-04
-7.39699000 5.74238000e-05
-7.36699000 -5.59274000e-04
-7.33699000 -1.71716000e-03
-7.30699000 -4.03617000e-03
-7.27699000 -8.21247000e-03
-7.24699000 -1.06831000e-02
-7.21699000 -6.88215000e-03
-7.18699000 -3.17052000e-03
-7.15699000 -1.23662000e-03
-7.12699000 -2.46040000e-04
-7.09699000 3.05578000e-04
-7.06699000 6.40022000e-04
-7.03699000 8.57864000e-04
-7.00699000 1.00833000e-03
-6.97699000 1.11736000e-03
-6.94699000 1.19949000e-03
-6.90007000 1.29320000e-03
-6.87007000 1.33781000e-03
-6.84007000 1.37332000e-03
-6.81007000 1.40053000e-03
-6.78007000 1.41862000e-03
-6.75007000 1.42414000e-03
-6.72007000 1.40807000e-03
-6.69007000 1.34881000e-03
-6.66007000 1.21105000e-03
-6.63007000 1.07461000e-03
-6.60007000 1.20938000e-03
-6.57007000 1.40848000e-03
-6.54007000 1.52715000e-03
-6.51007000 1.59649000e-03
-6.48007000 1.64277000e-03
-6.45007000 1.67781000e-03
-6.42007000 1.70690000e-03
-6.39007000 1.73264000e-03
-6.36007000 1.75637000e-03
-6.33007000 1.77886000e-03
-6.30007000 1.80058000e-03
-6.27007000 1.82184000e-03
-6.24007000 1.84282000e-03
-6.21007000 1.86368000e-03
-6.18007000 1.88453000e-03
-6.15007000 1.90543000e-03
-6.12007000 1.92646000e-03
-6.09007000 1.94766000e-03
-6.04314000 1.98129000e-03
-6.01314000 2.00314000e-03
-5.98314000 2.02530000e-03
-5.95314000 2.04780000e-03
-5.92314000 2.07067000e-03
-5.89314000 2.09395000e-03
-5.86314000 2.11765000e-03
-5.83314000 2.14179000e-03
-5.80314000 2.16642000e-03
-5.77314000 2.19155000e-03
-5.74314000 2.21720000e-03
-5.71314000 2.24341000e-03
-5.68314000 2.27021000e-03
-5.65314000 2.29761000e-03
-5.62314000 2.32565000e-03
-5.59314000 2.35436000e-03
-5.56314000 2.38377000e-03
-5.53314000 2.41391000e-03
-5.50314000 2.44482000e-03
-5.47314000 2.47653000e-03
-5.44314000 2.50908000e-03
-5.41314000 2.54250000e-03
-5.38314000 2.57684000e-03
-5.35314000 2.61215000e-03
-5.32314000 2.64846000e-03
-5.29314000 2.68582000e-03
-5.26314000 2.72429000e-03
-5.23314000 2.76392000e-03
-5.18622000 2.82838000e-03
-5.15622000 2.87126000e-03
-5.12622000 2.91552000e-03
-5.09622000 2.96124000e-03
-5.06622000 3.00848000e-03
-5.03622000 3.05734000e-03
-5.00622000 3.10791000e-03
-4.97622000 3.16026000e-03
-4.94622000 3.21452000e-03
-4.91622000 3.27078000e-03
-4.88622000 3.32917000e-03
-4.85622000 3.38981000e-03
-4.82622000 3.45284000e-03
-4.79622000 3.51842000e-03
-4.76622000 3.58670000e-03
-4.73622000 3.65786000e-03
-4.70622000 3.73211000e-03
-4.67622000 3.80965000e-03
-4.64622000 3.89073000e-03
-4.61622000 3.97561000e-03
-4.58622000 4.06459000e-03
-4.55622000 4.15801000e-03
-4.52622000 4.25626000e-03
-4.49622000 4.35976000e-03
-4.46622000 4.46905000e-03
-4.43622000 4.58472000e-03
-4.40622000 4.70751000e-03
-4.37622000 4.83834000e-03
-4.32929000 5.06197000e-03
-4.29929000 5.21962000e-03
-4.26929000 5.39161000e-03
-4.23929000 5.58169000e-03
-4.20929000 5.79574000e-03
-4.17929000 6.04362000e-03
-4.14929000 6.34314000e-03
-4.11929000 6.72944000e-03
-4.08929000 7.27805000e-03
-4.05929000 8.15988000e-03
-4.02929000 9.68939000e-03
-3.99929000 1.15316000e-02
-3.96929000 1.12279000e-02
-3.93929000 9.88669000e-03
-3.90929000 9.24632000e-03
-3.87929000 9.12143000e-03
-3.84929000 9.25862000e-03
-3.81929000 9.54451000e-03
-3.78929000 9.93325000e-03
-3.75929000 1.04085000e-02
-3.72929000 1.09685000e-02
-3.69929000 1.16213000e-02
-3.66929000 1.23834000e-02
-3.63929000 1.32819000e-02
-3.60929000 1.43603000e-02
-3.57929000 1.56893000e-02
-3.54929000 1.73906000e-02
-3.51929000 1.96882000e-02
-3.47236000 2.57088000e-02
-3.44236000 3.30672000e-02
-3.41236000 4.66716000e-02
-3.38236000 6.68989000e-02
-3.35236000 6.98209000e-02
-3.32236000 5.34743000e-02
-3.29236000 4.32602000e-02
-3.26236000 3.98276000e-02
-3.23236000 4.00156000e-02
-3.20236000 4.23532000e-02
-3.17236000 4.63314000e-02
-3.14236000 5.18986000e-02
-3.11236000 5.92828000e-02
-3.08236000 6.89651000e-02
-3.05236000 8.17453000e-02
-3.02236000 9.89046000e-02
-2.99236000 1.22528000e-01
-2.96236000 1.56136000e-01
-2.93236000 2.05986000e-01
-2.90236000 2.83927000e-01
-2.87236000 4.14132000e-01
-2.84236000 6.49836000e-01
-2.81236000 1.11218000e+00
-2.78236000 2.00473000e+00
-2.75236000 2.94173000e+00
-2.72236000 2.36250000e+00
-2.69236000 1.33618000e+00
-2.66236000 7.61279000e-01
-2.61544000 3.74360000e-01
-2.58544000 2.60797000e-01
-2.55544000 1.91578000e-01
-2.52544000 1.46656000e-01
-2.49544000 1.16005000e-01
-2.46544000 9.42361000e-02
-2.43544000 7.82652000e-02
-2.40544000 6.62352000e-02
-2.37544000 5.69780000e-02
-2.34544000 4.97325000e-02
-2.31544000 4.39890000e-02
-2.28544000 3.93999000e-02
-2.25544000 3.57277000e-02
-2.22544000 3.28148000e-02
-2.19544000 3.05702000e-02
-2.16544000 2.89696000e-02
-2.13544000 2.80779000e-02
-2.10544000 2.81144000e-02
-2.07544000 2.96222000e-02
-2.04544000 3.38848000e-02
-2.01544000 4.35121000e-02
-1.98544000 5.86518000e-02
-1.95544000 6.52452000e-02
-1.92544000 5.82380000e-02
-1.89544000 4.20592000e-02
-1.86544000 3.06728000e-02
-1.83544000 2.48619000e-02
-1.80544000 2.19998000e-02
-1.75851000 2.07126000e-02
-1.72851000 2.16670000e-02
-1.69851000 2.47177000e-02
-1.66851000 3.02289000e-02
-1.63851000 3.22778000e-02
-1.60851000 2.89963000e-02
-1.57851000 2.82825000e-02
-1.54851000 3.17269000e-02
-1.51851000 4.06114000e-02
-1.48851000 5.90638000e-02
-1.45851000 9.02909000e-02
-1.42851000 1.20644000e-01
-1.39851000 1.37253000e-01
-1.36851000 1.05504000e-01
-1.33851000 6.77094000e-02
-1.30851000 4.97398000e-02
-1.27851000 4.60988000e-02
-1.24851000 5.36629000e-02
-1.21851000 6.09261000e-02
-1.18851000 5.10734000e-02
-1.15851000 3.63456000e-02
-1.12851000 2.74506000e-02
-1.09851000 2.41769000e-02
-1.06851000 2.45322000e-02
-1.03851000 2.38735000e-02
-1.00851000 2.04946000e-02
-0.97850900 1.89627000e-02
-0.94850900 2.03386000e-02
-0.90158300 2.96227000e-02
-0.87158300 3.12123000e-02
-0.84158300 2.33142000e-02
-0.81158300 1.72397000e-02
-0.78158300 1.41305000e-02
-0.75158300 1.25365000e-02
-0.72158300 1.17060000e-02
-0.69158300 1.13367000e-02
-0.66158300 1.13525000e-02
-0.63158300 1.18589000e-02
-0.60158300 1.32002000e-02
-0.57158300 1.54606000e-02
-0.54158300 1.58144000e-02
-0.51158300 1.37697000e-02
-0.48158300 1.25937000e-02
-0.45158300 1.24565000e-02
-0.42158300 1.27301000e-02
-0.39158300 1.37204000e-02
-0.36158300 1.62747000e-02
-0.33158300 1.93546000e-02
-0.30158300 1.78265000e-02
-0.27158300 1.45887000e-02
-0.24158300 1.28408000e-02
-0.21158300 1.21135000e-02
-0.18158300 1.19109000e-02
-0.15158300 1.20285000e-02
-0.12158300 1.24134000e-02
-0.09158290 1.31121000e-02
-0.04465650 1.53113000e-02
-0.01465650 1.82501000e-02
0.01534350 2.37140000e-02
0.04534350 3.04208000e-02
0.07534350 2.99014000e-02
0.10534400 2.73417000e-02
0.13534400 3.01566000e-02
0.16534400 4.04367000e-02
0.19534400 5.39377000e-02
0.22534400 4.79559000e-02
0.25534400 3.30587000e-02
0.28534400 2.44456000e-02
0.31534400 2.02637000e-02
0.34534400 1.81849000e-02
0.37534400 1.71405000e-02
0.40534400 1.66566000e-02
0.43534400 1.64982000e-02
0.46534400 1.65483000e-02
0.49534400 1.67618000e-02
0.52534400 1.71098000e-02
0.55534400 1.75779000e-02
0.58534400 1.81660000e-02
0.61534400 1.88876000e-02
0.64534400 1.97742000e-02
0.67534400 2.08879000e-02
0.70534400 2.23524000e-02
0.73534400 2.44290000e-02
0.76534400 2.77051000e-02
