# E(MeV)  S_GAMTGAMT(K=1) for Re202_DDPCX
-11.30630000 9.56276000e-04
-11.27630000 7.32957000e-04
-11.24630000 3.01820000e-04
-11.21630000 -1.45322000e-04
-11.18630000 9.24489000e-05
-11.15630000 5.05984000e-04
-11.12630000 7.60022000e-04
-11.09630000 8.78563000e-04
-11.06630000 8.83521000e-04
-11.03630000 7.77986000e-04
-11.00630000 5.06264000e-04
-10.97630000 7.42865000e-06
-10.94630000 -2.76960000e-04
-10.91630000 -5.68852000e-06
-10.88630000 4.79850000e-05
-10.85630000 -4.09946000e-04
-10.82630000 -1.42792000e-03
-10.79630000 -1.81021000e-03
-10.76630000 -7.18540000e-04
-10.73630000 1.76086000e-04
-10.70630000 6.19094000e-04
-10.67630000 8.21322000e-04
-10.64630000 9.14537000e-04
-10.61630000 9.72088000e-04
-10.58630000 9.77978000e-04
-10.55630000 9.16971000e-04
-10.52630000 7.65777000e-04
-10.49630000 4.56914000e-04
-10.46630000 -1.62574000e-04
-10.43630000 -1.22555000e-03
-10.40630000 -2.01947000e-03
-10.37630000 -2.46462000e-03
-10.34630000 -3.00631000e-03
-10.31630000 -1.81368000e-03
-10.28630000 -3.68884000e-04
-10.25630000 4.25849000e-04
-10.22630000 8.39262000e-04
-10.19630000 1.07255000e-03
-10.16630000 1.21633000e-03
-10.13630000 1.31180000e-03
-10.09450000 1.40063000e-03
-10.06450000 1.44562000e-03
-10.03450000 1.48095000e-03
-10.00450000 1.50964000e-03
-9.97446000 1.53360000e-03
-9.94446000 1.55410000e-03
-9.91446000 1.57201000e-03
-9.88446000 1.58795000e-03
-9.85446000 1.60235000e-03
-9.82446000 1.61554000e-03
-9.79446000 1.62777000e-03
-9.76446000 1.63921000e-03
-9.73446000 1.65001000e-03
-9.70446000 1.66029000e-03
-9.67446000 1.67012000e-03
-9.64446000 1.67959000e-03
-9.61446000 1.68875000e-03
-9.58446000 1.69765000e-03
-9.55446000 1.70632000e-03
-9.52446000 1.71481000e-03
-9.49446000 1.72313000e-03
-9.46446000 1.73130000e-03
-9.43446000 1.73936000e-03
-9.40446000 1.74730000e-03
-9.37446000 1.75515000e-03
-9.34446000 1.76290000e-03
-9.31446000 1.77057000e-03
-9.28446000 1.77815000e-03
-9.25446000 1.78561000e-03
-9.22446000 1.79289000e-03
-9.19446000 1.79985000e-03
-9.16446000 1.80626000e-03
-9.13446000 1.81283000e-03
-9.10446000 1.82110000e-03
-9.07446000 1.82955000e-03
-9.04446000 1.83756000e-03
-9.01446000 1.84526000e-03
-8.98446000 1.85276000e-03
-8.95446000 1.86014000e-03
-8.92446000 1.86740000e-03
-8.88260000 1.87731000e-03
-8.85260000 1.88416000e-03
-8.82260000 1.89065000e-03
-8.79260000 1.89645000e-03
-8.76260000 1.90090000e-03
-8.73260000 1.90282000e-03
-8.70260000 1.90133000e-03
-8.67260000 1.89522000e-03
-8.64260000 1.89697000e-03
-8.61260000 1.91922000e-03
-8.58260000 1.93948000e-03
-8.55260000 1.95364000e-03
-8.52260000 1.96468000e-03
-8.49260000 1.97426000e-03
-8.46260000 1.98314000e-03
-8.43260000 1.99165000e-03
-8.40260000 1.99995000e-03
-8.37260000 2.00814000e-03
-8.34260000 2.01627000e-03
-8.31260000 2.02436000e-03
-8.28260000 2.03245000e-03
-8.25260000 2.04053000e-03
-8.22260000 2.04863000e-03
-8.19260000 2.05674000e-03
-8.16260000 2.06487000e-03
-8.13260000 2.07303000e-03
-8.10260000 2.08121000e-03
-8.07260000 2.08943000e-03
-8.04260000 2.09768000e-03
-8.01260000 2.10596000e-03
-7.98260000 2.11428000e-03
-7.95260000 2.12264000e-03
-7.92260000 2.13103000e-03
-7.89260000 2.13947000e-03
-7.86260000 2.14794000e-03
-7.83260000 2.15646000e-03
-7.80260000 2.16502000e-03
-7.77260000 2.17362000e-03
-7.74260000 2.18226000e-03
-7.71260000 2.19095000e-03
-7.67074000 2.20315000e-03
-7.64074000 2.21194000e-03
-7.61074000 2.22079000e-03
-7.58074000 2.22968000e-03
-7.55074000 2.23862000e-03
-7.52074000 2.24761000e-03
-7.49074000 2.25665000e-03
-7.46074000 2.26574000e-03
-7.43074000 2.27488000e-03
-7.40074000 2.28407000e-03
-7.37074000 2.29332000e-03
-7.34074000 2.30262000e-03
-7.31074000 2.31197000e-03
-7.28074000 2.32138000e-03
-7.25074000 2.33084000e-03
-7.22074000 2.34036000e-03
-7.19074000 2.34993000e-03
-7.16074000 2.35956000e-03
-7.13074000 2.36925000e-03
-7.10074000 2.37900000e-03
-7.07074000 2.38881000e-03
-7.04074000 2.39868000e-03
-7.01074000 2.40861000e-03
-6.98074000 2.41860000e-03
-6.95074000 2.42866000e-03
-6.92074000 2.43877000e-03
-6.89074000 2.44896000e-03
-6.86074000 2.45920000e-03
-6.83074000 2.46952000e-03
-6.80074000 2.47989000e-03
-6.77074000 2.49034000e-03
-6.74074000 2.50085000e-03
-6.71074000 2.51144000e-03
-6.68074000 2.52209000e-03
-6.65074000 2.53281000e-03
-6.62074000 2.54361000e-03
-6.59074000 2.55448000e-03
-6.56074000 2.56542000e-03
-6.53074000 2.57643000e-03
-6.50074000 2.58752000e-03
-6.45888000 2.60312000e-03
-6.42888000 2.61439000e-03
-6.39888000 2.62575000e-03
-6.36888000 2.63718000e-03
-6.33888000 2.64869000e-03
-6.30888000 2.66028000e-03
-6.27888000 2.67195000e-03
-6.24888000 2.68371000e-03
-6.21888000 2.69555000e-03
-6.18888000 2.70748000e-03
-6.15888000 2.71949000e-03
-6.12888000 2.73159000e-03
-6.09888000 2.74378000e-03
-6.06888000 2.75606000e-03
-6.03888000 2.76843000e-03
-6.00888000 2.78090000e-03
-5.97888000 2.79345000e-03
-5.94888000 2.80610000e-03
-5.91888000 2.81885000e-03
-5.88888000 2.83170000e-03
-5.85888000 2.84464000e-03
-5.82888000 2.85768000e-03
-5.79888000 2.87082000e-03
-5.76888000 2.88407000e-03
-5.73888000 2.89742000e-03
-5.70888000 2.91088000e-03
-5.67888000 2.92444000e-03
-5.64888000 2.93811000e-03
-5.61888000 2.95190000e-03
-5.58888000 2.96579000e-03
-5.55888000 2.97980000e-03
-5.52888000 2.99392000e-03
-5.49888000 3.00816000e-03
-5.46888000 3.02252000e-03
-5.43888000 3.03700000e-03
-5.40888000 3.05160000e-03
-5.37888000 3.06633000e-03
-5.34888000 3.08119000e-03
-5.31888000 3.09617000e-03
-5.28888000 3.11128000e-03
-5.24702000 3.13260000e-03
-5.21702000 3.14804000e-03
-5.18702000 3.16362000e-03
-5.15702000 3.17934000e-03
-5.12702000 3.19521000e-03
-5.09702000 3.21123000e-03
-5.06702000 3.22740000e-03
-5.03702000 3.24374000e-03
-5.00702000 3.26023000e-03
-4.97702000 3.27690000e-03
-4.94702000 3.29375000e-03
-4.91702000 3.31078000e-03
-4.88702000 3.32803000e-03
-4.85702000 3.34551000e-03
-4.82702000 3.36328000e-03
-4.79702000 3.38144000e-03
-4.76702000 3.40023000e-03
-4.73702000 3.42011000e-03
-4.70702000 3.44127000e-03
-4.67702000 3.46031000e-03
-4.64702000 3.47629000e-03
-4.61702000 3.49329000e-03
-4.58702000 3.51157000e-03
-4.55702000 3.53064000e-03
-4.52702000 3.55026000e-03
-4.49702000 3.57036000e-03
-4.46702000 3.59092000e-03
-4.43702000 3.61196000e-03
-4.40702000 3.63355000e-03
-4.37702000 3.65576000e-03
-4.34702000 3.67873000e-03
-4.31702000 3.70261000e-03
-4.28702000 3.72767000e-03
-4.25702000 3.75426000e-03
-4.22702000 3.78295000e-03
-4.19702000 3.81461000e-03
-4.16702000 3.85070000e-03
-4.13702000 3.89373000e-03
-4.10702000 3.94832000e-03
-4.07702000 4.02366000e-03
-4.03516000 4.20475000e-03
-4.00516000 4.46201000e-03
-3.97516000 4.93578000e-03
-3.94516000 5.41488000e-03
-3.91516000 5.13106000e-03
-3.88516000 4.64835000e-03
-3.85516000 4.39129000e-03
-3.82516000 4.27440000e-03
-3.79516000 4.22293000e-03
-3.76516000 4.20330000e-03
-3.73516000 4.20056000e-03
-3.70516000 4.20753000e-03
-3.67516000 4.22050000e-03
-3.64516000 4.23743000e-03
-3.61516000 4.25710000e-03
-3.58516000 4.27881000e-03
-3.55516000 4.30207000e-03
-3.52516000 4.32659000e-03
-3.49516000 4.35217000e-03
-3.46516000 4.37871000e-03
-3.43516000 4.40616000e-03
-3.40516000 4.43457000e-03
-3.37516000 4.46401000e-03
-3.34516000 4.49380000e-03
-3.31516000 4.52326000e-03
-3.28516000 4.55351000e-03
-3.25516000 4.58489000e-03
-3.22516000 4.61741000e-03
-3.19516000 4.65077000e-03
-3.16516000 4.68398000e-03
-3.13516000 4.71776000e-03
-3.10516000 4.75274000e-03
-3.07516000 4.78890000e-03
-3.04516000 4.82626000e-03
-3.01516000 4.86494000e-03
-2.98516000 4.90512000e-03
-2.95516000 4.94709000e-03
-2.92516000 4.99127000e-03
-2.89516000 5.03831000e-03
-2.86516000 5.08924000e-03
-2.82331000 5.17049000e-03
-2.79331000 5.24138000e-03
-2.76331000 5.33292000e-03
-2.73331000 5.46577000e-03
-2.70331000 5.66838000e-03
-2.67331000 5.84859000e-03
-2.64331000 5.81976000e-03
-2.61331000 5.78898000e-03
-2.58331000 5.84982000e-03
-2.55331000 5.99409000e-03
-2.52331000 6.23992000e-03
-2.49331000 6.63937000e-03
-2.46331000 7.31953000e-03
-2.43331000 8.62862000e-03
-2.40331000 1.06330000e-02
-2.37331000 1.10360000e-02
-2.34331000 9.84229000e-03
-2.31331000 9.58529000e-03
-2.28331000 9.22898000e-03
-2.25331000 8.04692000e-03
-2.22331000 7.22827000e-03
-2.19331000 6.82156000e-03
-2.16331000 6.62442000e-03
-2.13331000 6.53147000e-03
-2.10331000 6.49504000e-03
-2.07331000 6.49253000e-03
-2.04331000 6.51275000e-03
-2.01331000 6.55040000e-03
-1.98331000 6.60365000e-03
-1.95331000 6.67542000e-03
-1.92331000 6.77789000e-03
-1.89331000 6.93066000e-03
-1.86331000 7.08820000e-03
-1.83331000 7.09879000e-03
-1.80331000 7.07672000e-03
-1.77331000 7.11182000e-03
-1.74331000 7.19394000e-03
-1.71331000 7.30594000e-03
-1.68331000 7.40190000e-03
-1.65331000 7.50447000e-03
-1.61145000 7.74348000e-03
-1.58145000 7.91865000e-03
-1.55145000 8.02924000e-03
-1.52145000 8.20732000e-03
-1.49145000 8.47576000e-03
-1.46145000 8.66226000e-03
-1.43145000 8.69020000e-03
-1.40145000 8.79968000e-03
-1.37145000 9.03102000e-03
-1.34145000 9.38255000e-03
-1.31145000 9.88298000e-03
-1.28145000 1.06127000e-02
-1.25145000 1.17649000e-02
-1.22145000 1.36872000e-02
-1.19145000 1.68925000e-02
-1.16145000 2.28838000e-02
-1.13145000 3.32397000e-02
-1.10145000 3.73462000e-02
-1.07145000 2.75371000e-02
-1.04145000 1.94127000e-02
-1.01145000 1.53596000e-02
-0.98144700 1.34047000e-02
-0.95144700 1.24971000e-02
-0.92144700 1.21854000e-02
-0.89144700 1.19714000e-02
-0.86144700 1.16299000e-02
-0.83144700 1.14187000e-02
-0.80144700 1.12649000e-02
-0.77144700 1.11915000e-02
-0.74144700 1.11938000e-02
-0.71144700 1.12580000e-02
-0.68144700 1.13652000e-02
-0.65144700 1.14962000e-02
-0.62144700 1.16411000e-02
-0.59144700 1.18063000e-02
-0.56144700 1.19916000e-02
-0.53144700 1.21930000e-02
-0.50144700 1.24031000e-02
-0.47144700 1.26256000e-02
-0.44144700 1.28645000e-02
-0.39958900 1.32248000e-02
-0.36958900 1.34992000e-02
-0.33958900 1.37855000e-02
-0.30958900 1.40884000e-02
-0.27958900 1.44092000e-02
-0.24958900 1.47483000e-02
-0.21958900 1.51066000e-02
-0.18958900 1.54852000e-02
-0.15958900 1.58857000e-02
-0.12958900 1.63096000e-02
-0.09958870 1.67588000e-02
-0.06958870 1.72354000e-02
-0.03958870 1.77418000e-02
-0.00958875 1.82808000e-02
0.02041130 1.88554000e-02
0.05041130 1.94693000e-02
0.08041130 2.01266000e-02
0.11041100 2.08322000e-02
0.14041100 2.15919000e-02
0.17041100 2.24125000e-02
0.20041100 2.33027000e-02
0.23041100 2.42730000e-02
0.26041100 2.53375000e-02
0.29041100 2.65151000e-02
0.32041100 2.78331000e-02
0.35041100 2.93339000e-02
0.38041100 3.10893000e-02
0.41041100 3.32277000e-02
0.44041100 3.59389000e-02
0.47041100 3.91356000e-02
0.50041100 4.28332000e-02
0.53041100 4.86663000e-02
0.56041100 5.84020000e-02
0.59041100 7.06714000e-02
0.62041100 7.71684000e-02
0.65041100 7.55736000e-02
0.68041100 7.45950000e-02
0.71041100 7.11526000e-02
0.74041100 7.04114000e-02
0.77041100 7.37728000e-02
