# E(MeV)  S_GAMTGAMT(Total=K0+2*K1) for Re202_DDPCX
-11.30630000 3.14692200e-03
-11.27630000 2.66036400e-03
-11.24630000 1.71195000e-03
-11.21630000 6.53896000e-04
-11.18630000 1.01007380e-03
-11.15630000 1.97811500e-03
-11.12630000 2.63887400e-03
-11.09630000 2.94827600e-03
-11.06630000 2.97948200e-03
-11.03630000 2.75163200e-03
-11.00630000 2.14250800e-03
-10.97630000 9.96164300e-04
-10.94630000 2.31450000e-04
-10.91630000 8.31457960e-04
-10.88630000 1.13248000e-03
-10.85630000 3.21708000e-04
-10.82630000 -1.68050000e-03
-10.79630000 -2.45650000e-03
-10.76630000 -3.26760000e-04
-10.73630000 1.34787500e-03
-10.70630000 2.00389100e-03
-10.67630000 1.94596600e-03
-10.64630000 1.42264700e-03
-10.61630000 1.46471000e-03
-10.58630000 2.11651900e-03
-10.55630000 2.39921700e-03
-10.52630000 2.23106400e-03
-10.49630000 1.57483800e-03
-10.46630000 1.37918000e-04
-10.43630000 -2.41916010e-03
-10.40630000 -4.88666900e-03
-10.37630000 -7.57763000e-03
-10.34630000 -1.15215700e-02
-10.31630000 -9.52035000e-03
-10.28630000 -3.77187800e-03
-10.25630000 -1.31404000e-04
-10.22630000 1.73387420e-03
-10.19630000 2.74424300e-03
-10.16630000 3.34277000e-03
-10.13630000 3.72669000e-03
-10.09450000 4.07167000e-03
-10.06450000 4.24097000e-03
-10.03450000 4.37093000e-03
-10.00450000 4.47429000e-03
-9.97446000 4.55901000e-03
-9.94446000 4.63027000e-03
-9.91446000 4.69158000e-03
-9.88446000 4.74538000e-03
-9.85446000 4.79338000e-03
-9.82446000 4.83686000e-03
-9.79446000 4.87676000e-03
-9.76446000 4.91377000e-03
-9.73446000 4.94842000e-03
-9.70446000 4.98117000e-03
-9.67446000 5.01231000e-03
-9.64446000 5.04214000e-03
-9.61446000 5.07085000e-03
-9.58446000 5.09863000e-03
-9.55446000 5.12560000e-03
-9.52446000 5.15191000e-03
-9.49446000 5.17762000e-03
-9.46446000 5.20282000e-03
-9.43446000 5.22761000e-03
-9.40446000 5.25200000e-03
-9.37446000 5.27607000e-03
-9.34446000 5.29982000e-03
-9.31446000 5.32330000e-03
-9.28446000 5.34650000e-03
-9.25446000 5.36938000e-03
-9.22446000 5.39181000e-03
-9.19446000 5.41353000e-03
-9.16446000 5.43407000e-03
-9.13446000 5.45481000e-03
-9.10446000 5.47881000e-03
-9.07446000 5.50325000e-03
-9.04446000 5.52700000e-03
-9.01446000 5.55002000e-03
-8.98446000 5.57248000e-03
-8.95446000 5.59455000e-03
-8.92446000 5.61621000e-03
-8.88260000 5.64557000e-03
-8.85260000 5.66560000e-03
-8.82260000 5.68416000e-03
-8.79260000 5.69996000e-03
-8.76260000 5.71031000e-03
-8.73260000 5.70972000e-03
-8.70260000 5.69045000e-03
-8.67260000 5.65473000e-03
-8.64260000 5.67456000e-03
-8.61260000 5.75904000e-03
-8.58260000 5.82691000e-03
-8.55260000 5.87286000e-03
-8.52260000 5.90799000e-03
-8.49260000 5.93804000e-03
-8.46260000 5.96559000e-03
-8.43260000 5.99178000e-03
-8.40260000 6.01721000e-03
-8.37260000 6.04222000e-03
-8.34260000 6.06697000e-03
-8.31260000 6.09157000e-03
-8.28260000 6.11613000e-03
-8.25260000 6.14064000e-03
-8.22260000 6.16519000e-03
-8.19260000 6.18976000e-03
-8.16260000 6.21439000e-03
-8.13260000 6.23909000e-03
-8.10260000 6.26386000e-03
-8.07260000 6.28873000e-03
-8.04260000 6.31369000e-03
-8.01260000 6.33874000e-03
-7.98260000 6.36391000e-03
-7.95260000 6.38919000e-03
-7.92260000 6.41457000e-03
-7.89260000 6.44009000e-03
-7.86260000 6.46571000e-03
-7.83260000 6.49147000e-03
-7.80260000 6.51735000e-03
-7.77260000 6.54336000e-03
-7.74260000 6.56949000e-03
-7.71260000 6.59576000e-03
-7.67074000 6.63265000e-03
-7.64074000 6.65924000e-03
-7.61074000 6.68600000e-03
-7.58074000 6.71288000e-03
-7.55074000 6.73992000e-03
-7.52074000 6.76710000e-03
-7.49074000 6.79444000e-03
-7.46074000 6.82193000e-03
-7.43074000 6.84957000e-03
-7.40074000 6.87737000e-03
-7.37074000 6.90534000e-03
-7.34074000 6.93347000e-03
-7.31074000 6.96175000e-03
-7.28074000 6.99021000e-03
-7.25074000 7.01883000e-03
-7.22074000 7.04763000e-03
-7.19074000 7.07658000e-03
-7.16074000 7.10572000e-03
-7.13074000 7.13503000e-03
-7.10074000 7.16453000e-03
-7.07074000 7.19421000e-03
-7.04074000 7.22407000e-03
-7.01074000 7.25412000e-03
-6.98074000 7.28435000e-03
-6.95074000 7.31479000e-03
-6.92074000 7.34539000e-03
-6.89074000 7.37622000e-03
-6.86074000 7.40722000e-03
-6.83074000 7.43844000e-03
-6.80074000 7.46984000e-03
-6.77074000 7.50147000e-03
-6.74074000 7.53328000e-03
-6.71074000 7.56534000e-03
-6.68074000 7.59758000e-03
-6.65074000 7.63004000e-03
-6.62074000 7.66273000e-03
-6.59074000 7.69564000e-03
-6.56074000 7.72876000e-03
-6.53074000 7.76211000e-03
-6.50074000 7.79569000e-03
-6.45888000 7.84293000e-03
-6.42888000 7.87707000e-03
-6.39888000 7.91147000e-03
-6.36888000 7.94609000e-03
-6.33888000 7.98095000e-03
-6.30888000 8.01606000e-03
-6.27888000 8.05142000e-03
-6.24888000 8.08704000e-03
-6.21888000 8.12291000e-03
-6.18888000 8.15906000e-03
-6.15888000 8.19545000e-03
-6.12888000 8.23211000e-03
-6.09888000 8.26905000e-03
-6.06888000 8.30627000e-03
-6.03888000 8.34375000e-03
-6.00888000 8.38154000e-03
-5.97888000 8.41958000e-03
-5.94888000 8.45793000e-03
-5.91888000 8.49657000e-03
-5.88888000 8.53552000e-03
-5.85888000 8.57475000e-03
-5.82888000 8.61428000e-03
-5.79888000 8.65412000e-03
-5.76888000 8.69429000e-03
-5.73888000 8.73477000e-03
-5.70888000 8.77557000e-03
-5.67888000 8.81670000e-03
-5.64888000 8.85815000e-03
-5.61888000 8.89996000e-03
-5.58888000 8.94209000e-03
-5.55888000 8.98457000e-03
-5.52888000 9.02740000e-03
-5.49888000 9.07058000e-03
-5.46888000 9.11414000e-03
-5.43888000 9.15805000e-03
-5.40888000 9.20234000e-03
-5.37888000 9.24701000e-03
-5.34888000 9.29208000e-03
-5.31888000 9.33752000e-03
-5.28888000 9.38335000e-03
-5.24702000 9.44801000e-03
-5.21702000 9.49484000e-03
-5.18702000 9.54210000e-03
-5.15702000 9.58978000e-03
-5.12702000 9.63791000e-03
-5.09702000 9.68650000e-03
-5.06702000 9.73554000e-03
-5.03702000 9.78509000e-03
-5.00702000 9.83511000e-03
-4.97702000 9.88567000e-03
-4.94702000 9.93678000e-03
-4.91702000 9.98846000e-03
-4.88702000 1.00408300e-02
-4.85702000 1.00939800e-02
-4.82702000 1.01481300e-02
-4.79702000 1.02037700e-02
-4.76702000 1.02619600e-02
-4.73702000 1.03247500e-02
-4.70702000 1.03913400e-02
-4.67702000 1.04462200e-02
-4.64702000 1.04913700e-02
-4.61702000 1.05411300e-02
-4.58702000 1.05953700e-02
-4.55702000 1.06522100e-02
-4.52702000 1.07107300e-02
-4.49702000 1.07706200e-02
-4.46702000 1.08317500e-02
-4.43702000 1.08941200e-02
-4.40702000 1.09578400e-02
-4.37702000 1.10230600e-02
-4.34702000 1.10900400e-02
-4.31702000 1.11590800e-02
-4.28702000 1.12307300e-02
-4.25702000 1.13056800e-02
-4.22702000 1.13850800e-02
-4.19702000 1.14706700e-02
-4.16702000 1.15653800e-02
-4.13702000 1.16742200e-02
-4.10702000 1.18064600e-02
-4.07702000 1.19804600e-02
-4.03516000 1.23756500e-02
-4.00516000 1.29141600e-02
-3.97516000 1.38859900e-02
-3.94516000 1.48687700e-02
-3.91516000 1.43260200e-02
-3.88516000 1.33858000e-02
-3.85516000 1.28972000e-02
-3.82516000 1.26892700e-02
-3.79516000 1.26125200e-02
-3.76516000 1.25997900e-02
-3.73516000 1.26211900e-02
-3.70516000 1.26623900e-02
-3.67516000 1.27159600e-02
-3.64516000 1.27778500e-02
-3.61516000 1.28456200e-02
-3.58516000 1.29178900e-02
-3.55516000 1.29937100e-02
-3.52516000 1.30725100e-02
-3.49516000 1.31539400e-02
-3.46516000 1.32378600e-02
-3.43516000 1.33242800e-02
-3.40516000 1.34135300e-02
-3.37516000 1.35058200e-02
-3.34516000 1.35983300e-02
-3.31516000 1.36894700e-02
-3.28516000 1.37831900e-02
-3.25516000 1.38802900e-02
-3.22516000 1.39806100e-02
-3.19516000 1.40835300e-02
-3.16516000 1.41870800e-02
-3.13516000 1.42927900e-02
-3.10516000 1.44020000e-02
-3.07516000 1.45148200e-02
-3.04516000 1.46314700e-02
-3.01516000 1.47524400e-02
-2.98516000 1.48784300e-02
-2.95516000 1.50105000e-02
-2.92516000 1.51501900e-02
-2.89516000 1.52999100e-02
-2.86516000 1.54635200e-02
-2.82331000 1.57289600e-02
-2.79331000 1.59664900e-02
-2.76331000 1.62828300e-02
-2.73331000 1.67575900e-02
-2.70331000 1.74784400e-02
-2.67331000 1.80206400e-02
-2.64331000 1.78488700e-02
-2.61331000 1.77406800e-02
-2.58331000 1.79524300e-02
-2.55331000 1.84552900e-02
-2.52331000 1.93274000e-02
-2.49331000 2.08087400e-02
-2.46331000 2.34776400e-02
-2.43331000 2.85049400e-02
-2.40331000 3.46010000e-02
-2.37331000 3.39266000e-02
-2.34331000 2.99044800e-02
-2.31331000 2.91845800e-02
-2.28331000 2.80741500e-02
-2.25331000 2.44734000e-02
-2.22331000 2.19969800e-02
-2.19331000 2.07644200e-02
-2.16331000 2.01638800e-02
-2.13331000 1.98786800e-02
-2.10331000 1.97653600e-02
-2.07331000 1.97557300e-02
-2.04331000 1.98160300e-02
-2.01331000 1.99306100e-02
-1.98331000 2.00957000e-02
-1.95331000 2.03236500e-02
-1.92331000 2.06569300e-02
-1.89331000 2.11496800e-02
-1.86331000 2.15807900e-02
-1.83331000 2.15527200e-02
-1.80331000 2.14862900e-02
-1.77331000 2.15939000e-02
-1.74331000 2.18362400e-02
-1.71331000 2.21554600e-02
-1.68331000 2.24163900e-02
-1.65331000 2.26921000e-02
-1.61145000 2.33107100e-02
-1.58145000 2.37973000e-02
-1.55145000 2.42036600e-02
-1.52145000 2.48324800e-02
-1.49145000 2.57333000e-02
-1.46145000 2.62413900e-02
-1.43145000 2.61718100e-02
-1.40145000 2.63551200e-02
-1.37145000 2.68840700e-02
-1.34145000 2.77140100e-02
-1.31145000 2.88780000e-02
-1.28145000 3.05318200e-02
-1.25145000 3.30773500e-02
-1.22145000 3.72272800e-02
-1.19145000 4.40388000e-02
-1.16145000 5.65781000e-02
-1.13145000 7.81228000e-02
-1.10145000 8.77039000e-02
-1.07145000 7.05793000e-02
-1.04145000 5.91709000e-02
-1.01145000 5.83789000e-02
-0.98144700 5.50164000e-02
-0.95144700 4.62334000e-02
-0.92144700 4.08767000e-02
-0.89144700 3.81614000e-02
-0.86144700 3.63792000e-02
-0.83144700 3.54232000e-02
-0.80144700 3.48637000e-02
-0.77144700 3.46190000e-02
-0.74144700 3.46282000e-02
-0.71144700 3.48299000e-02
-0.68144700 3.51661000e-02
-0.65144700 3.55867000e-02
-0.62144700 3.60662000e-02
-0.59144700 3.66163000e-02
-0.56144700 3.72365000e-02
-0.53144700 3.78952000e-02
-0.50144700 3.85608000e-02
-0.47144700 3.92725000e-02
-0.44144700 4.00436000e-02
-0.39958900 4.12110000e-02
-0.36958900 4.21052000e-02
-0.33958900 4.30443000e-02
-0.30958900 4.40385000e-02
-0.27958900 4.50916000e-02
-0.24958900 4.62058000e-02
-0.21958900 4.73847000e-02
-0.18958900 4.86325000e-02
-0.15958900 4.99545000e-02
-0.12958900 5.13564000e-02
-0.09958870 5.28449000e-02
-0.06958870 5.44274000e-02
-0.03958870 5.61125000e-02
-0.00958875 5.79099000e-02
0.02041130 5.98307000e-02
0.05041130 6.18877000e-02
0.08041130 6.40955000e-02
0.11041100 6.64714000e-02
0.14041100 6.90357000e-02
0.17041100 7.18123000e-02
0.20041100 7.48309000e-02
0.23041100 7.81271000e-02
0.26041100 8.17472000e-02
0.29041100 8.57514000e-02
0.32041100 9.02230000e-02
0.35041100 9.52842000e-02
0.38041100 1.01128900e-01
0.41041100 1.08078700e-01
0.44041100 1.16612900e-01
0.47041100 1.26719600e-01
0.50041100 1.38531900e-01
0.53041100 1.55418400e-01
0.56041100 1.81674600e-01
0.59041100 2.15669400e-01
0.62041100 2.41978500e-01
0.65041100 2.56522200e-01
0.68041100 2.83622000e-01
0.71041100 3.32367200e-01
0.74041100 4.18658800e-01
0.77041100 4.50103600e-01
