# E(MeV)  S_GAMTGAMT(K=0) for Re202_DDPCX
-11.30630000 1.23437000e-03
-11.27630000 1.19445000e-03
-11.24630000 1.10831000e-03
-11.21630000 9.44540000e-04
-11.18630000 8.25176000e-04
-11.15630000 9.66147000e-04
-11.12630000 1.11883000e-03
-11.09630000 1.19115000e-03
-11.06630000 1.21244000e-03
-11.03630000 1.19566000e-03
-11.00630000 1.12998000e-03
-10.97630000 9.81307000e-04
-10.94630000 7.85370000e-04
-10.91630000 8.42835000e-04
-10.88630000 1.03651000e-03
-10.85630000 1.14160000e-03
-10.82630000 1.17534000e-03
-10.79630000 1.16392000e-03
-10.76630000 1.11032000e-03
-10.73630000 9.95703000e-04
-10.70630000 7.65703000e-04
-10.67630000 3.03322000e-04
-10.64630000 -4.06427000e-04
-10.61630000 -4.79466000e-04
-10.58630000 1.60563000e-04
-10.55630000 5.65275000e-04
-10.52630000 6.99510000e-04
-10.49630000 6.61010000e-04
-10.46630000 4.63066000e-04
-10.43630000 3.19399000e-05
-10.40630000 -8.47729000e-04
-10.37630000 -2.64839000e-03
-10.34630000 -5.50895000e-03
-10.31630000 -5.89299000e-03
-10.28630000 -3.03411000e-03
-10.25630000 -9.83102000e-04
-10.22630000 5.53502000e-05
-10.19630000 5.99143000e-04
-10.16630000 9.10110000e-04
-10.13630000 1.10309000e-03
-10.09450000 1.27041000e-03
-10.06450000 1.34973000e-03
-10.03450000 1.40903000e-03
-10.00450000 1.45501000e-03
-9.97446000 1.49181000e-03
-9.94446000 1.52207000e-03
-9.91446000 1.54756000e-03
-9.88446000 1.56948000e-03
-9.85446000 1.58868000e-03
-9.82446000 1.60578000e-03
-9.79446000 1.62122000e-03
-9.76446000 1.63535000e-03
-9.73446000 1.64840000e-03
-9.70446000 1.66059000e-03
-9.67446000 1.67207000e-03
-9.64446000 1.68296000e-03
-9.61446000 1.69335000e-03
-9.58446000 1.70333000e-03
-9.55446000 1.71296000e-03
-9.52446000 1.72229000e-03
-9.49446000 1.73136000e-03
-9.46446000 1.74022000e-03
-9.43446000 1.74889000e-03
-9.40446000 1.75740000e-03
-9.37446000 1.76577000e-03
-9.34446000 1.77402000e-03
-9.31446000 1.78216000e-03
-9.28446000 1.79020000e-03
-9.25446000 1.79816000e-03
-9.22446000 1.80603000e-03
-9.19446000 1.81383000e-03
-9.16446000 1.82155000e-03
-9.13446000 1.82915000e-03
-9.10446000 1.83661000e-03
-9.07446000 1.84415000e-03
-9.04446000 1.85188000e-03
-9.01446000 1.85950000e-03
-8.98446000 1.86696000e-03
-8.95446000 1.87427000e-03
-8.92446000 1.88141000e-03
-8.88260000 1.89095000e-03
-8.85260000 1.89728000e-03
-8.82260000 1.90286000e-03
-8.79260000 1.90706000e-03
-8.76260000 1.90851000e-03
-8.73260000 1.90408000e-03
-8.70260000 1.88779000e-03
-8.67260000 1.86429000e-03
-8.64260000 1.88062000e-03
-8.61260000 1.92060000e-03
-8.58260000 1.94795000e-03
-8.55260000 1.96558000e-03
-8.52260000 1.97863000e-03
-8.49260000 1.98952000e-03
-8.46260000 1.99931000e-03
-8.43260000 2.00848000e-03
-8.40260000 2.01731000e-03
-8.37260000 2.02594000e-03
-8.34260000 2.03443000e-03
-8.31260000 2.04285000e-03
-8.28260000 2.05123000e-03
-8.25260000 2.05958000e-03
-8.22260000 2.06793000e-03
-8.19260000 2.07628000e-03
-8.16260000 2.08465000e-03
-8.13260000 2.09303000e-03
-8.10260000 2.10144000e-03
-8.07260000 2.10987000e-03
-8.04260000 2.11833000e-03
-8.01260000 2.12682000e-03
-7.98260000 2.13535000e-03
-7.95260000 2.14391000e-03
-7.92260000 2.15251000e-03
-7.89260000 2.16115000e-03
-7.86260000 2.16983000e-03
-7.83260000 2.17855000e-03
-7.80260000 2.18731000e-03
-7.77260000 2.19612000e-03
-7.74260000 2.20497000e-03
-7.71260000 2.21386000e-03
-7.67074000 2.22635000e-03
-7.64074000 2.23536000e-03
-7.61074000 2.24442000e-03
-7.58074000 2.25352000e-03
-7.55074000 2.26268000e-03
-7.52074000 2.27188000e-03
-7.49074000 2.28114000e-03
-7.46074000 2.29045000e-03
-7.43074000 2.29981000e-03
-7.40074000 2.30923000e-03
-7.37074000 2.31870000e-03
-7.34074000 2.32823000e-03
-7.31074000 2.33781000e-03
-7.28074000 2.34745000e-03
-7.25074000 2.35715000e-03
-7.22074000 2.36691000e-03
-7.19074000 2.37672000e-03
-7.16074000 2.38660000e-03
-7.13074000 2.39653000e-03
-7.10074000 2.40653000e-03
-7.07074000 2.41659000e-03
-7.04074000 2.42671000e-03
-7.01074000 2.43690000e-03
-6.98074000 2.44715000e-03
-6.95074000 2.45747000e-03
-6.92074000 2.46785000e-03
-6.89074000 2.47830000e-03
-6.86074000 2.48882000e-03
-6.83074000 2.49940000e-03
-6.80074000 2.51006000e-03
-6.77074000 2.52079000e-03
-6.74074000 2.53158000e-03
-6.71074000 2.54246000e-03
-6.68074000 2.55340000e-03
-6.65074000 2.56442000e-03
-6.62074000 2.57551000e-03
-6.59074000 2.58668000e-03
-6.56074000 2.59792000e-03
-6.53074000 2.60925000e-03
-6.50074000 2.62065000e-03
-6.45888000 2.63669000e-03
-6.42888000 2.64829000e-03
-6.39888000 2.65997000e-03
-6.36888000 2.67173000e-03
-6.33888000 2.68357000e-03
-6.30888000 2.69550000e-03
-6.27888000 2.70752000e-03
-6.24888000 2.71962000e-03
-6.21888000 2.73181000e-03
-6.18888000 2.74410000e-03
-6.15888000 2.75647000e-03
-6.12888000 2.76893000e-03
-6.09888000 2.78149000e-03
-6.06888000 2.79415000e-03
-6.03888000 2.80689000e-03
-6.00888000 2.81974000e-03
-5.97888000 2.83268000e-03
-5.94888000 2.84573000e-03
-5.91888000 2.85887000e-03
-5.88888000 2.87212000e-03
-5.85888000 2.88547000e-03
-5.82888000 2.89892000e-03
-5.79888000 2.91248000e-03
-5.76888000 2.92615000e-03
-5.73888000 2.93993000e-03
-5.70888000 2.95381000e-03
-5.67888000 2.96782000e-03
-5.64888000 2.98193000e-03
-5.61888000 2.99616000e-03
-5.58888000 3.01051000e-03
-5.55888000 3.02497000e-03
-5.52888000 3.03956000e-03
-5.49888000 3.05426000e-03
-5.46888000 3.06910000e-03
-5.43888000 3.08405000e-03
-5.40888000 3.09914000e-03
-5.37888000 3.11435000e-03
-5.34888000 3.12970000e-03
-5.31888000 3.14518000e-03
-5.28888000 3.16079000e-03
-5.24702000 3.18281000e-03
-5.21702000 3.19876000e-03
-5.18702000 3.21486000e-03
-5.15702000 3.23110000e-03
-5.12702000 3.24749000e-03
-5.09702000 3.26404000e-03
-5.06702000 3.28074000e-03
-5.03702000 3.29761000e-03
-5.00702000 3.31465000e-03
-4.97702000 3.33187000e-03
-4.94702000 3.34928000e-03
-4.91702000 3.36690000e-03
-4.88702000 3.38477000e-03
-4.85702000 3.40296000e-03
-4.82702000 3.42157000e-03
-4.79702000 3.44089000e-03
-4.76702000 3.46150000e-03
-4.73702000 3.48453000e-03
-4.70702000 3.50880000e-03
-4.67702000 3.52560000e-03
-4.64702000 3.53879000e-03
-4.61702000 3.55455000e-03
-4.58702000 3.57223000e-03
-4.55702000 3.59093000e-03
-4.52702000 3.61021000e-03
-4.49702000 3.62990000e-03
-4.46702000 3.64991000e-03
-4.43702000 3.67020000e-03
-4.40702000 3.69074000e-03
-4.37702000 3.71154000e-03
-4.34702000 3.73258000e-03
-4.31702000 3.75386000e-03
-4.28702000 3.77539000e-03
-4.25702000 3.79716000e-03
-4.22702000 3.81918000e-03
-4.19702000 3.84145000e-03
-4.16702000 3.86398000e-03
-4.13702000 3.88676000e-03
-4.10702000 3.90982000e-03
-4.07702000 3.93314000e-03
-4.03516000 3.96615000e-03
-4.00516000 3.99014000e-03
-3.97516000 4.01443000e-03
-3.94516000 4.03901000e-03
-3.91516000 4.06390000e-03
-3.88516000 4.08910000e-03
-3.85516000 4.11462000e-03
-3.82516000 4.14047000e-03
-3.79516000 4.16666000e-03
-3.76516000 4.19319000e-03
-3.73516000 4.22007000e-03
-3.70516000 4.24733000e-03
-3.67516000 4.27496000e-03
-3.64516000 4.30299000e-03
-3.61516000 4.33142000e-03
-3.58516000 4.36027000e-03
-3.55516000 4.38957000e-03
-3.52516000 4.41933000e-03
-3.49516000 4.44960000e-03
-3.46516000 4.48044000e-03
-3.43516000 4.51196000e-03
-3.40516000 4.54439000e-03
-3.37516000 4.57780000e-03
-3.34516000 4.61073000e-03
-3.31516000 4.64295000e-03
-3.28516000 4.67617000e-03
-3.25516000 4.71051000e-03
-3.22516000 4.74579000e-03
-3.19516000 4.78199000e-03
-3.16516000 4.81912000e-03
-3.13516000 4.85727000e-03
-3.10516000 4.89652000e-03
-3.07516000 4.93702000e-03
-3.04516000 4.97895000e-03
-3.01516000 5.02256000e-03
-2.98516000 5.06819000e-03
-2.95516000 5.11632000e-03
-2.92516000 5.16765000e-03
-2.89516000 5.22329000e-03
-2.86516000 5.28504000e-03
-2.82331000 5.38798000e-03
-2.79331000 5.48373000e-03
-2.76331000 5.61699000e-03
-2.73331000 5.82605000e-03
-2.70331000 6.14168000e-03
-2.67331000 6.32346000e-03
-2.64331000 6.20935000e-03
-2.61331000 6.16272000e-03
-2.58331000 6.25279000e-03
-2.55331000 6.46711000e-03
-2.52331000 6.84756000e-03
-2.49331000 7.53000000e-03
-2.46331000 8.83858000e-03
-2.43331000 1.12477000e-02
-2.40331000 1.33350000e-02
-2.37331000 1.18546000e-02
-2.34331000 1.02199000e-02
-2.31331000 1.00140000e-02
-2.28331000 9.61619000e-03
-2.25331000 8.37956000e-03
-2.22331000 7.54044000e-03
-2.19331000 7.12130000e-03
-2.16331000 6.91504000e-03
-2.13331000 6.81574000e-03
-2.10331000 6.77528000e-03
-2.07331000 6.77067000e-03
-2.04331000 6.79053000e-03
-2.01331000 6.82981000e-03
-1.98331000 6.88840000e-03
-1.95331000 6.97281000e-03
-1.92331000 7.10115000e-03
-1.89331000 7.28836000e-03
-1.86331000 7.40439000e-03
-1.83331000 7.35514000e-03
-1.80331000 7.33285000e-03
-1.77331000 7.37026000e-03
-1.74331000 7.44836000e-03
-1.71331000 7.54358000e-03
-1.68331000 7.61259000e-03
-1.65331000 7.68316000e-03
-1.61145000 7.82375000e-03
-1.58145000 7.96000000e-03
-1.55145000 8.14518000e-03
-1.52145000 8.41784000e-03
-1.49145000 8.78178000e-03
-1.46145000 8.91687000e-03
-1.43145000 8.79141000e-03
-1.40145000 8.75576000e-03
-1.37145000 8.82203000e-03
-1.34145000 8.94891000e-03
-1.31145000 9.11204000e-03
-1.28145000 9.30642000e-03
-1.25145000 9.54755000e-03
-1.22145000 9.85288000e-03
-1.19145000 1.02538000e-02
-1.16145000 1.08105000e-02
-1.13145000 1.16434000e-02
-1.10145000 1.30115000e-02
-1.07145000 1.55051000e-02
-1.04145000 2.03455000e-02
-1.01145000 2.76597000e-02
-0.98144700 2.82070000e-02
-0.95144700 2.12392000e-02
-0.92144700 1.65059000e-02
-0.89144700 1.42186000e-02
-0.86144700 1.31194000e-02
-0.83144700 1.25858000e-02
-0.80144700 1.23339000e-02
-0.77144700 1.22360000e-02
-0.74144700 1.22406000e-02
-0.71144700 1.23139000e-02
-0.68144700 1.24357000e-02
-0.65144700 1.25943000e-02
-0.62144700 1.27840000e-02
-0.59144700 1.30037000e-02
-0.56144700 1.32533000e-02
-0.53144700 1.35092000e-02
-0.50144700 1.37546000e-02
-0.47144700 1.40213000e-02
-0.44144700 1.43146000e-02
-0.39958900 1.47614000e-02
-0.36958900 1.51068000e-02
-0.33958900 1.54733000e-02
-0.30958900 1.58617000e-02
-0.27958900 1.62732000e-02
-0.24958900 1.67092000e-02
-0.21958900 1.71715000e-02
-0.18958900 1.76621000e-02
-0.15958900 1.81831000e-02
-0.12958900 1.87372000e-02
-0.09958870 1.93273000e-02
-0.06958870 1.99566000e-02
-0.03958870 2.06289000e-02
-0.00958875 2.13483000e-02
0.02041130 2.21199000e-02
0.05041130 2.29491000e-02
0.08041130 2.38423000e-02
0.11041100 2.48070000e-02
0.14041100 2.58519000e-02
0.17041100 2.69873000e-02
0.20041100 2.82255000e-02
0.23041100 2.95811000e-02
0.26041100 3.10722000e-02
0.29041100 3.27212000e-02
0.32041100 3.45568000e-02
0.35041100 3.66164000e-02
0.38041100 3.89503000e-02
0.41041100 4.16233000e-02
0.44041100 4.47351000e-02
0.47041100 4.84484000e-02
0.50041100 5.28655000e-02
0.53041100 5.80858000e-02
0.56041100 6.48706000e-02
0.59041100 7.43266000e-02
0.62041100 8.76417000e-02
0.65041100 1.05375000e-01
0.68041100 1.34432000e-01
0.71041100 1.90062000e-01
0.74041100 2.77836000e-01
0.77041100 3.02558000e-01
