# E(MeV)  S_GAMTGAMT(K=0) for Rh113_DDPCX
-4.73924000 1.02940000e-02
-4.70924000 1.07734000e-02
-4.67924000 1.12955000e-02
-4.64924000 1.18669000e-02
-4.61924000 1.24956000e-02
-4.58924000 1.31915000e-02
-4.55924000 1.39672000e-02
-4.52924000 1.48396000e-02
-4.49924000 1.58319000e-02
-4.46924000 1.69783000e-02
-4.43924000 1.83340000e-02
-4.40924000 1.99986000e-02
-4.37924000 2.21721000e-02
-4.34924000 2.52509000e-02
-4.31924000 2.94281000e-02
-4.28924000 3.21887000e-02
-4.25924000 3.28667000e-02
-4.22924000 3.46820000e-02
-4.18409000 4.02124000e-02
-4.15409000 4.56376000e-02
-4.12409000 5.27618000e-02
-4.09409000 6.21721000e-02
-4.06409000 7.48529000e-02
-4.03409000 9.24443000e-02
-4.00409000 1.17780000e-01
-3.97409000 1.56029000e-01
-3.94409000 2.17295000e-01
-3.91409000 3.22900000e-01
-3.88409000 5.21032000e-01
-3.85409000 9.16397000e-01
-3.82409000 1.58715000e+00
-3.79409000 1.83109000e+00
-3.76409000 1.18925000e+00
-3.73409000 6.64483000e-01
-3.70409000 3.97365000e-01
-3.67409000 2.60358000e-01
-3.62893000 1.58378000e-01
-3.59893000 1.22177000e-01
-3.56893000 9.84915000e-02
-3.53893000 8.23577000e-02
-3.50893000 7.10459000e-02
-3.47893000 6.29666000e-02
-3.44893000 5.71507000e-02
-3.41893000 5.29858000e-02
-3.38893000 5.00745000e-02
-3.35893000 4.81551000e-02
-3.32893000 4.70560000e-02
-3.29893000 4.66682000e-02
-3.26893000 4.69295000e-02
-3.23893000 4.78151000e-02
-3.20893000 4.93338000e-02
-3.17893000 5.15280000e-02
-3.14893000 5.44777000e-02
-3.11893000 5.83094000e-02
-3.07378000 6.61763000e-02
-3.04378000 7.32481000e-02
-3.01378000 8.23504000e-02
-2.98378000 9.42440000e-02
-2.95378000 1.10130000e-01
-2.92378000 1.31990000e-01
-2.89378000 1.63280000e-01
-2.86378000 2.10432000e-01
-2.83378000 2.86383000e-01
-2.80378000 4.19310000e-01
-2.77378000 6.72824000e-01
-2.74378000 1.15324000e+00
-2.71378000 1.66090000e+00
-2.68378000 1.39956000e+00
-2.65378000 9.35506000e-01
-2.62378000 7.45987000e-01
-2.59378000 7.89587000e-01
-2.56378000 1.07974000e+00
-2.51863000 1.77078000e+00
-2.48863000 1.49103000e+00
-2.45863000 1.14623000e+00
-2.42863000 1.16285000e+00
-2.39863000 1.60276000e+00
-2.36863000 2.51408000e+00
-2.33863000 2.84150000e+00
-2.30863000 1.86718000e+00
-2.27863000 1.06726000e+00
-2.24863000 6.56005000e-01
-2.21863000 4.42686000e-01
-2.18863000 3.23086000e-01
-2.15863000 2.51514000e-01
-2.12863000 2.07229000e-01
-2.09863000 1.80423000e-01
-2.06863000 1.66768000e-01
-2.03863000 1.65570000e-01
-2.00863000 1.80052000e-01
-1.96348000 2.57513000e-01
-1.93348000 3.91870000e-01
-1.90348000 6.30643000e-01
-1.87348000 7.28170000e-01
-1.84348000 4.91264000e-01
-1.81348000 2.89885000e-01
-1.78348000 1.85620000e-01
-1.75348000 1.31091000e-01
-1.72348000 9.99483000e-02
-1.69348000 8.06131000e-02
-1.66348000 6.77766000e-02
-1.63348000 5.88063000e-02
-1.60348000 5.22987000e-02
-1.57348000 4.74645000e-02
-1.54348000 4.38552000e-02
-1.51348000 4.12513000e-02
-1.48348000 3.96338000e-02
-1.45348000 3.88835000e-02
-1.40833000 3.64191000e-02
-1.37833000 3.45499000e-02
-1.34833000 3.34093000e-02
-1.31833000 3.27873000e-02
-1.28833000 3.25353000e-02
-1.25833000 3.25905000e-02
-1.22833000 3.29329000e-02
-1.19833000 3.35658000e-02
-1.16833000 3.45093000e-02
-1.13833000 3.57995000e-02
-1.10833000 3.74897000e-02
-1.07833000 3.96549000e-02
-1.04833000 4.23990000e-02
-1.01833000 4.58655000e-02
-0.98833200 5.02548000e-02
-0.95833200 5.58508000e-02
-0.92833200 6.30650000e-02
-0.89833200 7.25085000e-02
-0.85318200 9.31309000e-02
-0.82318200 1.13602000e-01
-0.79318200 1.43085000e-01
-0.76318200 1.87488000e-01
-0.73318200 2.58249000e-01
-0.70318200 3.79298000e-01
-0.67318200 6.04380000e-01
-0.64318200 1.05150000e+00
-0.61318200 1.83219000e+00
-0.58318200 2.21821000e+00
-0.55318200 1.54755000e+00
-0.52318200 1.00192000e+00
-0.49318200 7.41888000e-01
-0.46318200 4.98610000e-01
-0.43318200 3.19798000e-01
-0.40318200 2.18487000e-01
-0.37318200 1.59577000e-01
-0.34318200 1.22672000e-01
-0.29803100 8.85536000e-02
-0.26803100 7.38403000e-02
-0.23803100 6.29174000e-02
-0.20803100 5.45805000e-02
-0.17803100 4.80716000e-02
-0.14803100 4.28936000e-02
-0.11803100 3.87094000e-02
-0.08803120 3.52844000e-02
-0.05803120 3.24529000e-02
-0.02803120 3.00989000e-02
0.00196879 2.81418000e-02
0.03196880 2.64779000e-02
0.06196880 2.49683000e-02
0.09196880 2.36493000e-02
0.12196900 2.25288000e-02
0.15196900 2.15694000e-02
0.18196900 2.07419000e-02
0.21196900 2.00256000e-02
0.25711900 1.91247000e-02
0.28711900 1.86274000e-02
0.31711900 1.82010000e-02
0.34711900 1.78392000e-02
0.37711900 1.75371000e-02
0.40711900 1.72912000e-02
0.43711900 1.70995000e-02
0.46711900 1.69613000e-02
0.49711900 1.68776000e-02
0.52711900 1.68514000e-02
0.55711900 1.68882000e-02
0.58711900 1.69967000e-02
0.61711900 1.71910000e-02
0.64711900 1.74927000e-02
0.67711900 1.79354000e-02
0.70711900 1.85732000e-02
0.73711900 1.94955000e-02
0.76711900 2.08579000e-02
