# E(MeV)  S_NSDRNSDR(Total=K0+2*K1) for Rh113_DDPCX
-4.73924000 -5.13365000e-02
-4.70924000 -4.97918000e-02
-4.67924000 -4.82623000e-02
-4.64924000 -4.67456000e-02
-4.61924000 -4.52390000e-02
-4.58924000 -4.37393000e-02
-4.55924000 -4.22428000e-02
-4.52924000 -4.07456800e-02
-4.49924000 -3.92424000e-02
-4.46924000 -3.77268800e-02
-4.43924000 -3.61911800e-02
-4.40924000 -3.46253800e-02
-4.37924000 -3.30163000e-02
-4.34924000 -3.13459200e-02
-4.31924000 -2.95898800e-02
-4.28924000 -2.77133400e-02
-4.25924000 -2.56656600e-02
-4.22924000 -2.33702000e-02
-4.18409000 -1.91636600e-02
-4.15409000 -1.55335960e-02
-4.12409000 -1.07322600e-02
-4.09409000 -3.88816000e-03
-4.06409000 6.78528000e-03
-4.03409000 2.52423000e-02
-4.00409000 6.04464000e-02
-3.97409000 1.26369600e-01
-3.94409000 1.88008100e-01
-3.91409000 1.41330580e-01
-3.88409000 7.31274000e-02
-3.85409000 3.64600500e-02
-3.82409000 1.86371000e-02
-3.79409000 9.59243000e-03
-3.76409000 4.83500000e-03
-3.73409000 2.36135000e-03
-3.70409000 1.21361000e-03
-3.67409000 9.02190000e-04
-3.62893000 1.46966000e-03
-3.59893000 2.35933000e-03
-3.56893000 3.60409500e-03
-3.53893000 5.21174400e-03
-3.50893000 7.23770000e-03
-3.47893000 9.79927000e-03
-3.44893000 1.31098400e-02
-3.41893000 1.75516600e-02
-3.38893000 2.38318200e-02
-3.35893000 3.33366600e-02
-3.32893000 4.89900200e-02
-3.29893000 7.73919400e-02
-3.26893000 1.32996200e-01
-3.23893000 2.28274040e-01
-3.20893000 2.69926100e-01
-3.17893000 1.82268920e-01
-3.14893000 1.07448740e-01
-3.11893000 6.98765000e-02
-3.07378000 4.58143600e-02
-3.04378000 3.89198800e-02
-3.01378000 3.53503600e-02
-2.98378000 3.37282400e-02
-2.95378000 3.33799000e-02
-2.92378000 3.39948000e-02
-2.89378000 3.55126000e-02
-2.86378000 3.81324000e-02
-2.83378000 4.19989900e-02
-2.80378000 4.50546800e-02
-2.77378000 4.63670000e-02
-2.74378000 4.88061700e-02
-2.71378000 5.28710000e-02
-2.68378000 5.85494000e-02
-2.65378000 6.62004000e-02
-2.62378000 7.66547000e-02
-2.59378000 9.14793000e-02
-2.56378000 1.13665100e-01
-2.51863000 1.76094700e-01
-2.48863000 2.61757100e-01
-2.45863000 4.29852100e-01
-2.42863000 7.09782300e-01
-2.39863000 8.05807100e-01
-2.36863000 5.51454400e-01
-2.33863000 3.55120900e-01
-2.30863000 2.69638300e-01
-2.27863000 2.49716700e-01
-2.24863000 2.81793600e-01
-2.21863000 3.85585500e-01
-2.18863000 6.02468500e-01
-2.15863000 7.91556500e-01
-2.12863000 6.09815500e-01
-2.09863000 3.75422900e-01
-2.06863000 2.49713800e-01
-2.03863000 1.87122900e-01
-2.00863000 1.54224300e-01
-1.96348000 1.30373700e-01
-1.93348000 1.23258700e-01
-1.90348000 1.20206500e-01
-1.87348000 1.20113700e-01
-1.84348000 1.22504100e-01
-1.81348000 1.27357800e-01
-1.78348000 1.35153000e-01
-1.75348000 1.47197200e-01
-1.72348000 1.66528400e-01
-1.69348000 1.99083400e-01
-1.66348000 2.43378600e-01
-1.63348000 2.59073200e-01
-1.60348000 2.58349400e-01
-1.57348000 2.82818600e-01
-1.54348000 3.42543800e-01
-1.51348000 4.58582200e-01
-1.48348000 6.85757800e-01
-1.45348000 1.08921920e+00
-1.40833000 1.25794000e+00
-1.37833000 9.53389000e-01
-1.34833000 8.77973000e-01
-1.31833000 1.08624600e+00
-1.28833000 1.58214200e+00
-1.25833000 1.77242500e+00
-1.22833000 1.23811300e+00
-1.19833000 8.01417000e-01
-1.16833000 5.87481000e-01
-1.13833000 4.90981000e-01
-1.10833000 4.56584000e-01
-1.07833000 4.65670000e-01
-1.04833000 5.18363000e-01
-1.01833000 5.99973000e-01
-0.98833200 6.80618000e-01
-0.95833200 8.17727000e-01
-0.92833200 9.43084000e-01
-0.89833200 1.08225000e+00
-0.85318200 1.69612000e+00
-0.82318200 2.27787400e+00
-0.79318200 2.01877600e+00
-0.76318200 1.47608600e+00
-0.73318200 1.22460500e+00
-0.70318200 1.12358400e+00
-0.67318200 1.12072600e+00
-0.64318200 1.26016800e+00
-0.61318200 1.56967400e+00
-0.58318200 1.88673600e+00
-0.55318200 1.91095600e+00
-0.52318200 2.00359300e+00
-0.49318200 2.35401100e+00
-0.46318200 3.02220300e+00
-0.43318200 4.19503100e+00
-0.40318200 6.33797000e+00
-0.37318200 1.04625900e+01
-0.34318200 1.73950700e+01
-0.29803100 2.13677300e+01
-0.26803100 2.08605800e+01
-0.23803100 2.34822800e+01
-0.20803100 2.25466200e+01
-0.17803100 1.60541000e+01
-0.14803100 1.05545600e+01
-0.11803100 6.71681000e+00
-0.08803120 4.39416200e+00
-0.05803120 3.10757800e+00
-0.02803120 2.36676600e+00
0.00196879 1.89150000e+00
0.03196880 1.55300600e+00
0.06196880 1.33480000e+00
0.09196880 1.22009100e+00
0.12196900 1.21144700e+00
0.15196900 1.28038300e+00
0.18196900 1.23446000e+00
0.21196900 1.15238500e+00
0.25711900 1.10619500e+00
0.28711900 1.06205300e+00
0.31711900 1.09112700e+00
0.34711900 1.24567800e+00
0.37711900 1.59217800e+00
0.40711900 2.28345200e+00
0.43711900 3.52807700e+00
0.46711900 5.02433200e+00
0.49711900 5.98104800e+00
0.52711900 5.90413800e+00
0.55711900 6.06042600e+00
0.58711900 5.50284500e+00
0.61711900 3.51037400e+00
0.64711900 2.13216800e+00
0.67711900 1.41486300e+00
0.70711900 1.02654300e+00
0.73711900 7.99018000e-01
0.76711900 6.57133000e-01
