# E(MeV)  S_NSDRNSDR(K=1) for Rh113_DDPCX
-4.73924000 -1.26871000e-02
-4.70924000 -1.22584000e-02
-4.67924000 -1.18316000e-02
-4.64924000 -1.14057000e-02
-4.61924000 -1.09796000e-02
-4.58924000 -1.05520000e-02
-4.55924000 -1.01213000e-02
-4.52924000 -9.68574000e-03
-4.49924000 -9.24290000e-03
-4.46924000 -8.78994000e-03
-4.43924000 -8.32319000e-03
-4.40924000 -7.83784000e-03
-4.37924000 -7.32755000e-03
-4.34924000 -6.78366000e-03
-4.31924000 -6.19419000e-03
-4.28924000 -5.54202000e-03
-4.25924000 -4.80208000e-03
-4.22924000 -3.93635000e-03
-4.18409000 -2.25473000e-03
-4.15409000 -7.18498000e-04
-4.12409000 1.40397000e-03
-4.09409000 4.54797000e-03
-4.06409000 9.60634000e-03
-4.03409000 1.85556000e-02
-4.00409000 3.58768000e-02
-3.97409000 6.85553000e-02
-3.94409000 9.90883000e-02
-3.91409000 7.54590000e-02
-3.88409000 4.10614000e-02
-3.85409000 2.24247000e-02
-3.82409000 1.32013000e-02
-3.79409000 8.35579000e-03
-3.76409000 5.63969000e-03
-3.73409000 4.04747000e-03
-3.70409000 3.09525000e-03
-3.67409000 2.53170000e-03
-3.62893000 2.12574000e-03
-3.59893000 2.04246000e-03
-3.56893000 2.05802000e-03
-3.53893000 2.14644000e-03
-3.50893000 2.29037000e-03
-3.47893000 2.47800000e-03
-3.44893000 2.70117000e-03
-3.41893000 2.95423000e-03
-3.38893000 3.23331000e-03
-3.35893000 3.53583000e-03
-3.32893000 3.86021000e-03
-3.29893000 4.20567000e-03
-3.26893000 4.57210000e-03
-3.23893000 4.96002000e-03
-3.20893000 5.37055000e-03
-3.17893000 5.80546000e-03
-3.14893000 6.26722000e-03
-3.11893000 6.75920000e-03
-3.07378000 7.56698000e-03
-3.04378000 8.15814000e-03
-3.01378000 8.80408000e-03
-2.98378000 9.51982000e-03
-2.95378000 1.03295000e-02
-2.92378000 1.12761000e-02
-2.89378000 1.24450000e-02
-2.86378000 1.40063000e-02
-2.83378000 1.60773000e-02
-2.80378000 1.76588000e-02
-2.77378000 1.83046000e-02
-2.74378000 1.94637000e-02
-2.71378000 2.13953000e-02
-2.68378000 2.41004000e-02
-2.65378000 2.77635000e-02
-2.62378000 3.28036000e-02
-2.59378000 4.00068000e-02
-2.56378000 5.08703000e-02
-2.51863000 8.17040000e-02
-2.48863000 1.24259000e-01
-2.45863000 2.08012000e-01
-2.42863000 3.47664000e-01
-2.39863000 3.95344000e-01
-2.36863000 2.67815000e-01
-2.33863000 1.69274000e-01
-2.30863000 1.26135000e-01
-2.27863000 1.15751000e-01
-2.24863000 1.31338000e-01
-2.21863000 1.82751000e-01
-2.18863000 2.90674000e-01
-2.15863000 3.84659000e-01
-2.12863000 2.93183000e-01
-2.09863000 1.75327000e-01
-2.06863000 1.11749000e-01
-2.03863000 7.96540000e-02
-2.00863000 6.23130000e-02
-1.96348000 4.88228000e-02
-1.93348000 4.40306000e-02
-1.90348000 4.10585000e-02
-1.87348000 3.92805000e-02
-1.84348000 3.83414000e-02
-1.81348000 3.80341000e-02
-1.78348000 3.82382000e-02
-1.75348000 3.88893000e-02
-1.72348000 3.99629000e-02
-1.69348000 4.14677000e-02
-1.66348000 4.34453000e-02
-1.63348000 4.59756000e-02
-1.60348000 4.91897000e-02
-1.57348000 5.32938000e-02
-1.54348000 5.86134000e-02
-1.51348000 6.56736000e-02
-1.48348000 7.53554000e-02
-1.45348000 8.92136000e-02
-1.40833000 1.25125000e-01
-1.37833000 1.69843000e-01
-1.34833000 2.52404000e-01
-1.31833000 4.15534000e-01
-1.28833000 6.93300000e-01
-1.25833000 8.04081000e-01
-1.22833000 5.44915000e-01
-1.19833000 3.29858000e-01
-1.16833000 2.22805000e-01
-1.13833000 1.71536000e-01
-1.10833000 1.48176000e-01
-1.07833000 1.42454000e-01
-1.04833000 1.52171000e-01
-1.01833000 1.64993000e-01
-0.98833200 1.55916000e-01
-0.95833200 1.48900000e-01
-0.92833200 1.58033000e-01
-0.89833200 1.73667000e-01
-0.85318200 1.74205000e-01
-0.82318200 1.85282000e-01
-0.79318200 2.08293000e-01
-0.76318200 2.33673000e-01
-0.73318200 2.66448000e-01
-0.70318200 2.79193000e-01
-0.67318200 2.84534000e-01
-0.64318200 3.08868000e-01
-0.61318200 3.52713000e-01
-0.58318200 4.17338000e-01
-0.55318200 5.09306000e-01
-0.52318200 6.42013000e-01
-0.49318200 8.40584000e-01
-0.46318200 1.15387000e+00
-0.43318200 1.68368000e+00
-0.40318200 2.65685000e+00
-0.37318200 4.55837000e+00
-0.34318200 7.75507000e+00
-0.29803100 8.87253000e+00
-0.26803100 7.30532000e+00
-0.23803100 6.23994000e+00
-0.20803100 4.16356000e+00
-0.17803100 2.60010000e+00
-0.14803100 1.68335000e+00
-0.11803100 1.15128000e+00
-0.08803120 8.42081000e-01
-0.05803120 6.52319000e-01
-0.02803120 5.30008000e-01
0.00196879 4.49436000e-01
0.03196880 3.97877000e-01
0.06196880 3.70409000e-01
0.09196880 3.69366000e-01
0.12196900 4.05539000e-01
0.15196900 4.70206000e-01
0.18196900 4.70380000e-01
0.21196900 4.47416000e-01
0.25711900 4.44695000e-01
0.28711900 4.32737000e-01
0.31711900 4.55137000e-01
0.34711900 5.38103000e-01
0.37711900 7.14834000e-01
0.40711900 1.06300000e+00
0.43711900 1.68707000e+00
0.46711900 2.43275000e+00
0.49711900 2.90057000e+00
0.52711900 2.83739000e+00
0.55711900 2.88813000e+00
0.58711900 2.62881000e+00
0.61711900 1.66678000e+00
0.64711900 9.97333000e-01
0.67711900 6.48832000e-01
0.70711900 4.60174000e-01
0.73711900 3.49420000e-01
0.76711900 2.79885000e-01
