# E(MeV)  S_NSDRNSDR(K=0) for Rh113_DDPCX
-4.73924000 -2.59623000e-02
-4.70924000 -2.52750000e-02
-4.67924000 -2.45991000e-02
-4.64924000 -2.39342000e-02
-4.61924000 -2.32798000e-02
-4.58924000 -2.26353000e-02
-4.55924000 -2.20002000e-02
-4.52924000 -2.13742000e-02
-4.49924000 -2.07566000e-02
-4.46924000 -2.01470000e-02
-4.43924000 -1.95448000e-02
-4.40924000 -1.89497000e-02
-4.37924000 -1.83612000e-02
-4.34924000 -1.77786000e-02
-4.31924000 -1.72015000e-02
-4.28924000 -1.66293000e-02
-4.25924000 -1.60615000e-02
-4.22924000 -1.54975000e-02
-4.18409000 -1.46542000e-02
-4.15409000 -1.40966000e-02
-4.12409000 -1.35402000e-02
-4.09409000 -1.29841000e-02
-4.06409000 -1.24274000e-02
-4.03409000 -1.18689000e-02
-4.00409000 -1.13072000e-02
-3.97409000 -1.07410000e-02
-3.94409000 -1.01685000e-02
-3.91409000 -9.58742000e-03
-3.88409000 -8.99540000e-03
-3.85409000 -8.38935000e-03
-3.82409000 -7.76550000e-03
-3.79409000 -7.11915000e-03
-3.76409000 -6.44438000e-03
-3.73409000 -5.73359000e-03
-3.70409000 -4.97689000e-03
-3.67409000 -4.16121000e-03
-3.62893000 -2.78182000e-03
-3.59893000 -1.72559000e-03
-3.56893000 -5.11945000e-04
-3.53893000 9.18864000e-04
-3.50893000 2.65696000e-03
-3.47893000 4.84327000e-03
-3.44893000 7.70750000e-03
-3.41893000 1.16432000e-02
-3.38893000 1.73652000e-02
-3.35893000 2.62650000e-02
-3.32893000 4.12696000e-02
-3.29893000 6.89806000e-02
-3.26893000 1.23852000e-01
-3.23893000 2.18354000e-01
-3.20893000 2.59185000e-01
-3.17893000 1.70658000e-01
-3.14893000 9.49143000e-02
-3.11893000 5.63581000e-02
-3.07378000 3.06804000e-02
-3.04378000 2.26036000e-02
-3.01378000 1.77422000e-02
-2.98378000 1.46886000e-02
-2.95378000 1.27209000e-02
-2.92378000 1.14426000e-02
-2.89378000 1.06226000e-02
-2.86378000 1.01198000e-02
-2.83378000 9.84439000e-03
-2.80378000 9.73708000e-03
-2.77378000 9.75780000e-03
-2.74378000 9.87877000e-03
-2.71378000 1.00804000e-02
-2.68378000 1.03486000e-02
-2.65378000 1.06734000e-02
-2.62378000 1.10475000e-02
-2.59378000 1.14657000e-02
-2.56378000 1.19245000e-02
-2.51863000 1.26867000e-02
-2.48863000 1.32391000e-02
-2.45863000 1.38281000e-02
-2.42863000 1.44543000e-02
-2.39863000 1.51191000e-02
-2.36863000 1.58244000e-02
-2.33863000 1.65729000e-02
-2.30863000 1.73683000e-02
-2.27863000 1.82147000e-02
-2.24863000 1.91176000e-02
-2.21863000 2.00835000e-02
-2.18863000 2.11205000e-02
-2.15863000 2.22385000e-02
-2.12863000 2.34495000e-02
-2.09863000 2.47689000e-02
-2.06863000 2.62158000e-02
-2.03863000 2.78149000e-02
-2.00863000 2.95983000e-02
-1.96348000 3.27281000e-02
-1.93348000 3.51975000e-02
-1.90348000 3.80895000e-02
-1.87348000 4.15527000e-02
-1.84348000 4.58213000e-02
-1.81348000 5.12896000e-02
-1.78348000 5.86766000e-02
-1.75348000 6.94186000e-02
-1.72348000 8.66026000e-02
-1.69348000 1.16148000e-01
-1.66348000 1.56488000e-01
-1.63348000 1.67122000e-01
-1.60348000 1.59970000e-01
-1.57348000 1.76231000e-01
-1.54348000 2.25317000e-01
-1.51348000 3.27235000e-01
-1.48348000 5.35047000e-01
-1.45348000 9.10792000e-01
-1.40833000 1.00769000e+00
-1.37833000 6.13703000e-01
-1.34833000 3.73165000e-01
-1.31833000 2.55178000e-01
-1.28833000 1.95542000e-01
-1.25833000 1.64263000e-01
-1.22833000 1.48283000e-01
-1.19833000 1.41701000e-01
-1.16833000 1.41871000e-01
-1.13833000 1.47909000e-01
-1.10833000 1.60232000e-01
-1.07833000 1.80762000e-01
-1.04833000 2.14021000e-01
-1.01833000 2.69987000e-01
-0.98833200 3.68786000e-01
-0.95833200 5.19927000e-01
-0.92833200 6.27018000e-01
-0.89833200 7.34916000e-01
-0.85318200 1.34771000e+00
-0.82318200 1.90731000e+00
-0.79318200 1.60219000e+00
-0.76318200 1.00874000e+00
-0.73318200 6.91709000e-01
-0.70318200 5.65198000e-01
-0.67318200 5.51658000e-01
-0.64318200 6.42432000e-01
-0.61318200 8.64248000e-01
-0.58318200 1.05206000e+00
-0.55318200 8.92344000e-01
-0.52318200 7.19567000e-01
-0.49318200 6.72843000e-01
-0.46318200 7.14463000e-01
-0.43318200 8.27671000e-01
-0.40318200 1.02427000e+00
-0.37318200 1.34585000e+00
-0.34318200 1.88493000e+00
-0.29803100 3.62267000e+00
-0.26803100 6.24994000e+00
-0.23803100 1.10024000e+01
-0.20803100 1.42195000e+01
-0.17803100 1.08539000e+01
-0.14803100 7.18786000e+00
-0.11803100 4.41425000e+00
-0.08803120 2.71000000e+00
-0.05803120 1.80294000e+00
-0.02803120 1.30675000e+00
0.00196879 9.92628000e-01
0.03196880 7.57252000e-01
0.06196880 5.93982000e-01
0.09196880 4.81359000e-01
0.12196900 4.00369000e-01
0.15196900 3.39971000e-01
0.18196900 2.93700000e-01
0.21196900 2.57553000e-01
0.25711900 2.16805000e-01
0.28711900 1.96579000e-01
0.31711900 1.80853000e-01
0.34711900 1.69472000e-01
0.37711900 1.62510000e-01
0.40711900 1.57452000e-01
0.43711900 1.53937000e-01
0.46711900 1.58832000e-01
0.49711900 1.79908000e-01
0.52711900 2.29358000e-01
0.55711900 2.84166000e-01
0.58711900 2.45225000e-01
0.61711900 1.76814000e-01
0.64711900 1.37502000e-01
0.67711900 1.17199000e-01
0.70711900 1.06195000e-01
0.73711900 1.00178000e-01
0.76711900 9.73630000e-02
