# E(MeV)  S_GAMTGAMT(K=1) for Sb132_DDPCX
-12.49680000 8.66439000e-04
-12.46680000 8.69973000e-04
-12.43680000 8.73399000e-04
-12.40680000 8.76745000e-04
-12.37680000 8.80033000e-04
-12.34680000 8.83276000e-04
-12.31680000 8.86484000e-04
-12.28680000 8.89666000e-04
-12.25680000 8.92827000e-04
-12.22680000 8.95973000e-04
-12.19680000 8.99107000e-04
-12.16680000 9.02232000e-04
-12.13680000 9.05351000e-04
-12.10680000 9.08464000e-04
-12.07680000 9.11575000e-04
-12.04680000 9.14681000e-04
-12.01680000 9.17784000e-04
-11.98680000 9.20887000e-04
-11.95680000 9.24007000e-04
-11.92680000 9.27131000e-04
-11.89680000 9.30253000e-04
-11.86680000 9.33373000e-04
-11.83680000 9.36493000e-04
-11.80680000 9.39612000e-04
-11.77680000 9.42726000e-04
-11.74680000 9.45832000e-04
-11.71680000 9.48919000e-04
-11.68680000 9.51972000e-04
-11.65680000 9.54957000e-04
-11.62680000 9.57804000e-04
-11.59680000 9.60418000e-04
-11.56680000 9.62865000e-04
-11.53680000 9.64908000e-04
-11.50680000 9.65740000e-04
-11.47680000 9.67173000e-04
-11.44680000 9.72659000e-04
-11.41680000 9.78418000e-04
-11.38680000 9.83018000e-04
-11.35680000 9.86981000e-04
-11.32680000 9.90654000e-04
-11.29680000 9.94190000e-04
-11.26680000 9.97659000e-04
-11.23680000 1.00109000e-03
-11.20680000 1.00451000e-03
-11.16590000 1.00917000e-03
-11.13590000 1.01259000e-03
-11.10590000 1.01601000e-03
-11.07590000 1.01944000e-03
-11.04590000 1.02288000e-03
-11.01590000 1.02633000e-03
-10.98590000 1.02979000e-03
-10.95590000 1.03327000e-03
-10.92590000 1.03675000e-03
-10.89590000 1.04025000e-03
-10.86590000 1.04377000e-03
-10.83590000 1.04729000e-03
-10.80590000 1.05083000e-03
-10.77590000 1.05439000e-03
-10.74590000 1.05796000e-03
-10.71590000 1.06155000e-03
-10.68590000 1.06515000e-03
-10.65590000 1.06876000e-03
-10.62590000 1.07239000e-03
-10.59590000 1.07604000e-03
-10.56590000 1.07970000e-03
-10.53590000 1.08338000e-03
-10.50590000 1.08707000e-03
-10.47590000 1.09079000e-03
-10.44590000 1.09451000e-03
-10.41590000 1.09826000e-03
-10.38590000 1.10202000e-03
-10.35590000 1.10580000e-03
-10.32590000 1.10959000e-03
-10.29590000 1.11340000e-03
-10.26590000 1.11724000e-03
-10.23590000 1.12108000e-03
-10.20590000 1.12495000e-03
-10.17590000 1.12883000e-03
-10.14590000 1.13273000e-03
-10.11590000 1.13666000e-03
-10.08590000 1.14059000e-03
-10.05590000 1.14455000e-03
-10.02590000 1.14853000e-03
-9.99589000 1.15252000e-03
-9.96589000 1.15654000e-03
-9.93589000 1.16057000e-03
-9.90589000 1.16463000e-03
-9.87589000 1.16870000e-03
-9.83499000 1.17429000e-03
-9.80499000 1.17841000e-03
-9.77499000 1.18255000e-03
-9.74499000 1.18671000e-03
-9.71499000 1.19089000e-03
-9.68499000 1.19509000e-03
-9.65499000 1.19932000e-03
-9.62499000 1.20356000e-03
-9.59499000 1.20783000e-03
-9.56499000 1.21212000e-03
-9.53499000 1.21643000e-03
-9.50499000 1.22076000e-03
-9.47499000 1.22511000e-03
-9.44499000 1.22949000e-03
-9.41499000 1.23388000e-03
-9.38499000 1.23831000e-03
-9.35499000 1.24275000e-03
-9.32499000 1.24722000e-03
-9.29499000 1.25171000e-03
-9.26499000 1.25622000e-03
-9.23499000 1.26076000e-03
-9.20499000 1.26532000e-03
-9.17499000 1.26990000e-03
-9.14499000 1.27451000e-03
-9.11499000 1.27914000e-03
-9.08499000 1.28380000e-03
-9.05499000 1.28848000e-03
-9.02499000 1.29319000e-03
-8.99499000 1.29792000e-03
-8.96499000 1.30268000e-03
-8.93499000 1.30747000e-03
-8.90499000 1.31228000e-03
-8.87499000 1.31711000e-03
-8.84499000 1.32197000e-03
-8.81499000 1.32686000e-03
-8.78499000 1.33178000e-03
-8.75499000 1.33672000e-03
-8.72499000 1.34169000e-03
-8.69499000 1.34669000e-03
-8.66499000 1.35171000e-03
-8.63499000 1.35677000e-03
-8.60499000 1.36185000e-03
-8.57499000 1.36696000e-03
-8.54499000 1.37209000e-03
-8.50408000 1.37915000e-03
-8.47408000 1.38435000e-03
-8.44408000 1.38959000e-03
-8.41408000 1.39486000e-03
-8.38408000 1.40015000e-03
-8.35408000 1.40548000e-03
-8.32408000 1.41083000e-03
-8.29408000 1.41622000e-03
-8.26408000 1.42164000e-03
-8.23408000 1.42709000e-03
-8.20408000 1.43257000e-03
-8.17408000 1.43808000e-03
-8.14408000 1.44363000e-03
-8.11408000 1.44921000e-03
-8.08408000 1.45482000e-03
-8.05408000 1.46046000e-03
-8.02408000 1.46614000e-03
-7.99408000 1.47185000e-03
-7.96408000 1.47759000e-03
-7.93408000 1.48337000e-03
-7.90408000 1.48918000e-03
-7.87408000 1.49503000e-03
-7.84408000 1.50091000e-03
-7.81408000 1.50683000e-03
-7.78408000 1.51278000e-03
-7.75408000 1.51877000e-03
-7.72408000 1.52479000e-03
-7.69408000 1.53085000e-03
-7.66408000 1.53695000e-03
-7.63408000 1.54309000e-03
-7.60408000 1.54926000e-03
-7.57408000 1.55548000e-03
-7.54408000 1.56173000e-03
-7.51408000 1.56801000e-03
-7.48408000 1.57434000e-03
-7.45408000 1.58071000e-03
-7.42408000 1.58712000e-03
-7.39408000 1.59356000e-03
-7.36408000 1.60005000e-03
-7.33408000 1.60658000e-03
-7.30408000 1.61315000e-03
-7.27408000 1.61976000e-03
-7.24408000 1.62641000e-03
-7.21408000 1.63311000e-03
-7.17317000 1.64231000e-03
-7.14317000 1.64910000e-03
-7.11317000 1.65595000e-03
-7.08317000 1.66283000e-03
-7.05317000 1.66976000e-03
-7.02317000 1.67673000e-03
-6.99317000 1.68375000e-03
-6.96317000 1.69082000e-03
-6.93317000 1.69793000e-03
-6.90317000 1.70509000e-03
-6.87317000 1.71230000e-03
-6.84317000 1.71955000e-03
-6.81317000 1.72685000e-03
-6.78317000 1.73420000e-03
-6.75317000 1.74160000e-03
-6.72317000 1.74905000e-03
-6.69317000 1.75654000e-03
-6.66317000 1.76409000e-03
-6.63317000 1.77169000e-03
-6.60317000 1.77934000e-03
-6.57317000 1.78705000e-03
-6.54317000 1.79480000e-03
-6.51317000 1.80261000e-03
-6.48317000 1.81047000e-03
-6.45317000 1.81839000e-03
-6.42317000 1.82636000e-03
-6.39317000 1.83438000e-03
-6.36317000 1.84246000e-03
-6.33317000 1.85060000e-03
-6.30317000 1.85879000e-03
-6.27317000 1.86704000e-03
-6.24317000 1.87535000e-03
-6.21317000 1.88372000e-03
-6.18317000 1.89215000e-03
-6.15317000 1.90063000e-03
-6.12317000 1.90918000e-03
-6.09317000 1.91779000e-03
-6.06317000 1.92646000e-03
-6.03317000 1.93519000e-03
-6.00317000 1.94398000e-03
-5.97317000 1.95284000e-03
-5.94317000 1.96176000e-03
-5.91317000 1.97075000e-03
-5.88317000 1.97980000e-03
-5.84226000 1.99225000e-03
-5.81226000 2.00146000e-03
-5.78226000 2.01074000e-03
-5.75226000 2.02009000e-03
-5.72226000 2.02950000e-03
-5.69226000 2.03899000e-03
-5.66226000 2.04854000e-03
-5.63226000 2.05817000e-03
-5.60226000 2.06787000e-03
-5.57226000 2.07765000e-03
-5.54226000 2.08750000e-03
-5.51226000 2.09742000e-03
-5.48226000 2.10742000e-03
-5.45226000 2.11749000e-03
-5.42226000 2.12764000e-03
-5.39226000 2.13787000e-03
-5.36226000 2.14818000e-03
-5.33226000 2.15857000e-03
-5.30226000 2.16904000e-03
-5.27226000 2.17960000e-03
-5.24226000 2.19023000e-03
-5.21226000 2.20095000e-03
-5.18226000 2.21175000e-03
-5.15226000 2.22264000e-03
-5.12226000 2.23361000e-03
-5.09226000 2.24468000e-03
-5.06226000 2.25583000e-03
-5.03226000 2.26707000e-03
-5.00226000 2.27840000e-03
-4.97226000 2.28982000e-03
-4.94226000 2.30134000e-03
-4.91226000 2.31295000e-03
-4.88226000 2.32465000e-03
-4.85226000 2.33645000e-03
-4.82226000 2.34835000e-03
-4.79226000 2.36035000e-03
-4.76226000 2.37244000e-03
-4.73226000 2.38464000e-03
-4.70226000 2.39694000e-03
-4.67226000 2.40934000e-03
-4.64226000 2.42184000e-03
-4.61226000 2.43446000e-03
-4.58226000 2.44718000e-03
-4.55226000 2.46000000e-03
-4.51136000 2.47767000e-03
-4.48136000 2.49076000e-03
-4.45136000 2.50396000e-03
-4.42136000 2.51728000e-03
-4.39136000 2.53071000e-03
-4.36136000 2.54426000e-03
-4.33136000 2.55793000e-03
-4.30136000 2.57172000e-03
-4.27136000 2.58563000e-03
-4.24136000 2.59966000e-03
-4.21136000 2.61382000e-03
-4.18136000 2.62811000e-03
-4.15136000 2.64253000e-03
-4.12136000 2.65707000e-03
-4.09136000 2.67175000e-03
-4.06136000 2.68656000e-03
-4.03136000 2.70150000e-03
-4.00136000 2.71659000e-03
-3.97136000 2.73181000e-03
-3.94136000 2.74717000e-03
-3.91136000 2.76268000e-03
-3.88136000 2.77833000e-03
-3.85136000 2.79412000e-03
-3.82136000 2.81007000e-03
-3.79136000 2.82616000e-03
-3.76136000 2.84241000e-03
-3.73136000 2.85882000e-03
-3.70136000 2.87538000e-03
-3.67136000 2.89210000e-03
-3.64136000 2.90898000e-03
-3.61136000 2.92603000e-03
-3.58136000 2.94324000e-03
-3.55136000 2.96062000e-03
-3.52136000 2.97817000e-03
-3.49136000 2.99590000e-03
-3.46136000 3.01380000e-03
-3.43136000 3.03188000e-03
-3.40136000 3.05014000e-03
-3.37136000 3.06859000e-03
-3.34136000 3.08722000e-03
-3.31136000 3.10604000e-03
-3.28136000 3.12506000e-03
-3.25136000 3.14427000e-03
-3.22136000 3.16368000e-03
-3.18045000 3.19046000e-03
-3.15045000 3.21035000e-03
-3.12045000 3.23045000e-03
-3.09045000 3.25076000e-03
-3.06045000 3.27128000e-03
-3.03045000 3.29202000e-03
-3.00045000 3.31299000e-03
-2.97045000 3.33418000e-03
-2.94045000 3.35560000e-03
-2.91045000 3.37725000e-03
-2.88045000 3.39914000e-03
-2.85045000 3.42127000e-03
-2.82045000 3.44364000e-03
-2.79045000 3.46626000e-03
-2.76045000 3.48914000e-03
-2.73045000 3.51227000e-03
-2.70045000 3.53566000e-03
-2.67045000 3.55932000e-03
-2.64045000 3.58325000e-03
-2.61045000 3.60745000e-03
-2.58045000 3.63193000e-03
-2.55045000 3.65669000e-03
-2.52045000 3.68175000e-03
-2.49045000 3.70709000e-03
-2.46045000 3.73274000e-03
-2.43045000 3.75869000e-03
-2.40045000 3.78495000e-03
-2.37045000 3.81153000e-03
-2.34045000 3.83843000e-03
-2.31045000 3.86565000e-03
-2.28045000 3.89321000e-03
-2.25045000 3.92110000e-03
-2.22045000 3.94934000e-03
-2.19045000 3.97794000e-03
-2.16045000 4.00689000e-03
-2.13045000 4.03620000e-03
-2.10045000 4.06589000e-03
-2.07045000 4.09596000e-03
-2.04045000 4.12642000e-03
-2.01045000 4.15726000e-03
-1.98045000 4.18851000e-03
-1.95045000 4.22017000e-03
-1.92045000 4.25225000e-03
-1.89045000 4.28476000e-03
-1.84954000 4.32978000e-03
-1.81954000 4.36333000e-03
-1.78954000 4.39733000e-03
-1.75954000 4.43180000e-03
-1.72954000 4.46674000e-03
-1.69954000 4.50217000e-03
-1.66954000 4.53810000e-03
-1.63954000 4.57453000e-03
-1.60954000 4.61148000e-03
-1.57954000 4.64896000e-03
-1.54954000 4.68698000e-03
-1.51954000 4.72555000e-03
-1.48954000 4.76469000e-03
-1.45954000 4.80440000e-03
-1.42954000 4.84471000e-03
-1.39954000 4.88562000e-03
-1.36954000 4.92715000e-03
-1.33954000 4.96931000e-03
-1.30954000 5.01213000e-03
-1.27954000 5.05560000e-03
-1.24954000 5.09976000e-03
-1.21954000 5.14461000e-03
-1.18954000 5.19018000e-03
-1.15954000 5.23648000e-03
-1.12954000 5.28353000e-03
-1.09954000 5.33135000e-03
-1.06954000 5.37997000e-03
-1.03954000 5.42939000e-03
-1.00954000 5.47965000e-03
-0.97954400 5.53076000e-03
-0.94954400 5.58276000e-03
-0.91954400 5.63566000e-03
-0.88954400 5.68949000e-03
-0.85954400 5.74429000e-03
-0.82954400 5.80006000e-03
-0.79954400 5.85686000e-03
-0.76954400 5.91471000e-03
-0.73954400 5.97364000e-03
-0.70954400 6.03370000e-03
-0.67954400 6.09491000e-03
-0.64954400 6.15733000e-03
-0.61954400 6.22100000e-03
-0.58954400 6.28598000e-03
-0.55954400 6.35231000e-03
-0.51863700 6.44509000e-03
-0.48863700 6.51494000e-03
-0.45863700 6.58646000e-03
-0.42863700 6.65979000e-03
-0.39863700 6.73516000e-03
-0.36863700 6.81293000e-03
-0.33863700 6.89377000e-03
-0.30863700 6.97902000e-03
-0.27863700 7.07094000e-03
-0.24863700 7.16765000e-03
-0.21863700 7.25655000e-03
-0.18863700 7.34835000e-03
-0.15863700 7.45751000e-03
-0.12863700 7.59534000e-03
-0.09863690 7.78657000e-03
-0.06863690 8.03511000e-03
-0.03863690 8.14710000e-03
-0.00863694 8.10142000e-03
0.02136310 8.11101000e-03
0.05136310 8.17849000e-03
0.08136310 8.25385000e-03
0.11136300 8.33557000e-03
0.14136300 8.43371000e-03
0.17136300 8.54397000e-03
0.20136300 8.66309000e-03
0.23136300 8.78984000e-03
0.26136300 8.92415000e-03
0.29136300 9.06664000e-03
0.32136300 9.21860000e-03
0.35136300 9.38209000e-03
0.38136300 9.56041000e-03
0.41136300 9.75886000e-03
0.44136300 9.98632000e-03
0.47136300 1.02586000e-02
0.50136300 1.06056000e-02
0.53136300 1.10891000e-02
0.56136300 1.18458000e-02
0.59136300 1.31831000e-02
0.62136300 1.55311000e-02
0.65136300 1.74512000e-02
0.68136300 1.59002000e-02
0.71136300 1.40207000e-02
0.74136300 1.31948000e-02
0.77136300 1.29729000e-02
