# E(MeV)  S_GAMTGAMT(K=1) for Ta193_DDPCX
-5.30030000 2.98037000e-03
-5.27030000 2.98720000e-03
-5.24030000 2.99796000e-03
-5.21030000 3.00946000e-03
-5.18030000 3.02079000e-03
-5.15030000 3.03874000e-03
-5.12030000 3.06332000e-03
-5.09030000 3.08767000e-03
-5.06030000 3.11239000e-03
-5.03030000 3.13962000e-03
-5.00030000 3.17233000e-03
-4.97030000 3.21613000e-03
-4.94030000 3.28350000e-03
-4.91030000 3.39975000e-03
-4.88030000 3.56278000e-03
-4.85030000 3.57766000e-03
-4.82030000 3.44988000e-03
-4.79030000 3.36974000e-03
-4.76030000 3.33542000e-03
-4.73030000 3.31904000e-03
-4.68904000 3.29423000e-03
-4.65904000 3.28018000e-03
-4.62904000 3.31654000e-03
-4.59904000 3.36584000e-03
-4.56904000 3.40248000e-03
-4.53904000 3.43160000e-03
-4.50904000 3.45758000e-03
-4.47904000 3.48234000e-03
-4.44904000 3.50672000e-03
-4.41904000 3.53112000e-03
-4.38904000 3.55575000e-03
-4.35904000 3.58071000e-03
-4.32904000 3.60609000e-03
-4.29904000 3.63194000e-03
-4.26904000 3.65830000e-03
-4.23904000 3.68521000e-03
-4.20904000 3.71270000e-03
-4.17904000 3.74082000e-03
-4.14904000 3.76960000e-03
-4.11904000 3.79908000e-03
-4.07778000 3.84086000e-03
-4.04778000 3.87221000e-03
-4.01778000 3.90443000e-03
-3.98778000 3.93759000e-03
-3.95778000 3.97175000e-03
-3.92778000 4.00701000e-03
-3.89778000 4.04345000e-03
-3.86778000 4.08117000e-03
-3.83778000 4.12028000e-03
-3.80778000 4.16093000e-03
-3.77778000 4.20325000e-03
-3.74778000 4.24743000e-03
-3.71778000 4.29366000e-03
-3.68778000 4.34219000e-03
-3.65778000 4.39330000e-03
-3.62778000 4.44731000e-03
-3.59778000 4.50462000e-03
-3.56778000 4.56570000e-03
-3.53778000 4.63112000e-03
-3.50778000 4.70157000e-03
-3.46653000 4.80831000e-03
-3.43653000 4.89459000e-03
-3.40653000 4.98978000e-03
-3.37653000 5.09579000e-03
-3.34653000 5.21509000e-03
-3.31653000 5.35095000e-03
-3.28653000 5.50775000e-03
-3.25653000 5.69155000e-03
-3.22653000 5.91080000e-03
-3.19653000 6.17774000e-03
-3.16653000 6.51046000e-03
-3.13653000 6.93677000e-03
-3.10653000 7.50105000e-03
-3.07653000 8.27754000e-03
-3.04653000 9.39750000e-03
-3.01653000 1.11086000e-02
-2.98653000 1.39152000e-02
-2.95653000 1.89262000e-02
-2.92653000 2.86621000e-02
-2.89653000 4.73397000e-02
-2.85527000 6.63437000e-02
-2.82527000 4.62175000e-02
-2.79527000 2.87998000e-02
-2.76527000 2.02015000e-02
-2.73527000 1.63383000e-02
-2.70527000 1.51087000e-02
-2.67527000 1.60124000e-02
-2.64527000 1.87960000e-02
-2.61527000 2.17802000e-02
-2.58527000 2.51950000e-02
-2.55527000 2.36966000e-02
-2.52527000 1.91631000e-02
-2.49527000 1.65355000e-02
-2.46527000 1.63449000e-02
-2.43527000 1.57599000e-02
-2.40527000 1.42251000e-02
-2.37527000 1.27208000e-02
-2.34527000 1.16727000e-02
-2.31527000 1.12122000e-02
-2.28527000 1.09399000e-02
-2.24401000 1.06816000e-02
-2.21401000 1.09492000e-02
-2.18401000 1.16339000e-02
-2.15401000 1.26983000e-02
-2.12401000 1.35400000e-02
-2.09401000 1.42844000e-02
-2.06401000 1.56280000e-02
-2.03401000 1.76717000e-02
-2.00401000 2.08202000e-02
-1.97401000 2.58381000e-02
-1.94401000 3.42062000e-02
-1.91401000 4.92165000e-02
-1.88401000 7.83958000e-02
-1.85401000 1.34964000e-01
-1.82401000 1.98868000e-01
-1.79401000 1.67668000e-01
-1.76401000 1.01627000e-01
-1.73401000 6.55214000e-02
-1.70401000 5.07149000e-02
-1.67401000 4.86852000e-02
-1.63276000 5.71132000e-02
-1.60276000 5.84485000e-02
-1.57276000 4.48109000e-02
-1.54276000 3.37013000e-02
-1.51276000 2.92032000e-02
-1.48276000 2.95377000e-02
-1.45276000 3.52219000e-02
-1.42276000 4.95030000e-02
-1.39276000 7.07620000e-02
-1.36276000 6.80283000e-02
-1.33276000 4.62038000e-02
-1.30276000 3.30971000e-02
-1.27276000 2.84353000e-02
-1.24276000 2.93134000e-02
-1.21276000 3.06562000e-02
-1.18276000 2.69898000e-02
-1.15276000 2.51627000e-02
-1.12276000 2.81565000e-02
-1.09276000 3.22543000e-02
-1.06276000 2.76513000e-02
-1.02150000 1.96879000e-02
-0.99150000 1.71974000e-02
-0.96150000 1.61868000e-02
-0.93150000 1.61503000e-02
-0.90150000 1.70999000e-02
-0.87150000 1.95527000e-02
-0.84150000 2.48777000e-02
-0.81150000 3.39671000e-02
-0.78150000 3.68078000e-02
-0.75150000 2.80529000e-02
-0.72150000 2.12302000e-02
-0.69150000 1.78785000e-02
-0.66150000 1.62498000e-02
-0.63150000 1.53921000e-02
-0.60150000 1.49443000e-02
-0.57150000 1.48022000e-02
-0.54150000 1.48961000e-02
-0.51150000 1.52270000e-02
-0.48150000 1.57594000e-02
-0.45150000 1.60298000e-02
-0.41024300 1.61358000e-02
-0.38024300 1.64747000e-02
-0.35024300 1.69358000e-02
-0.32024300 1.75390000e-02
-0.29024300 1.82819000e-02
-0.26024300 1.91049000e-02
-0.23024300 2.00461000e-02
-0.20024300 2.13344000e-02
-0.17024300 2.32908000e-02
-0.14024300 2.64324000e-02
-0.11024300 3.19161000e-02
-0.08024310 4.13320000e-02
-0.05024310 5.07920000e-02
-0.02024310 5.57019000e-02
0.00975692 5.95964000e-02
0.03975690 5.18886000e-02
0.06975690 4.51992000e-02
0.09975690 4.46526000e-02
0.12975700 4.27723000e-02
0.15975700 3.94070000e-02
0.20101300 3.93211000e-02
0.23101300 4.18298000e-02
0.26101300 4.41976000e-02
0.29101300 4.75804000e-02
0.32101300 5.47498000e-02
0.35101300 6.31570000e-02
0.38101300 6.35655000e-02
0.41101300 6.34161000e-02
0.44101300 6.93222000e-02
0.47101300 8.17617000e-02
0.50101300 9.12973000e-02
0.53101300 8.88731000e-02
0.56101300 8.89857000e-02
0.59101300 9.50396000e-02
0.62101300 1.05281000e-01
0.65101300 1.19554000e-01
0.68101300 1.39361000e-01
0.71101300 1.67020000e-01
0.74101300 2.06998000e-01
0.77101300 2.67539000e-01
