# E(MeV)  S_GAMTGAMT(Total=K0+2*K1) for Ta193_DDPCX
-5.30030000 9.19585000e-03
-5.27030000 9.23472000e-03
-5.24030000 9.27334000e-03
-5.21030000 9.31180000e-03
-5.18030000 9.35262000e-03
-5.15030000 9.40842000e-03
-5.12030000 9.47842000e-03
-5.09030000 9.54854000e-03
-5.06030000 9.61979000e-03
-5.03030000 9.69635000e-03
-5.00030000 9.78403000e-03
-4.97030000 9.89393000e-03
-4.94030000 1.00507700e-02
-4.91030000 1.03047100e-02
-4.88030000 1.06506100e-02
-4.85030000 1.06965000e-02
-4.82030000 1.04486200e-02
-4.79030000 1.02819800e-02
-4.76030000 1.02193500e-02
-4.73030000 1.02423200e-02
-4.68904000 1.02666600e-02
-4.65904000 1.02783900e-02
-4.62904000 1.03858700e-02
-4.59904000 1.05171600e-02
-4.56904000 1.06223600e-02
-4.53904000 1.07124000e-02
-4.50904000 1.07963500e-02
-4.47904000 1.08782700e-02
-4.44904000 1.09599500e-02
-4.41904000 1.10422900e-02
-4.38904000 1.11257900e-02
-4.35904000 1.12107000e-02
-4.32904000 1.12972700e-02
-4.29904000 1.13856600e-02
-4.26904000 1.14760100e-02
-4.23904000 1.15684800e-02
-4.20904000 1.16631800e-02
-4.17904000 1.17603000e-02
-4.14904000 1.18599700e-02
-4.11904000 1.19623700e-02
-4.07778000 1.21080200e-02
-4.04778000 1.22177300e-02
-4.01778000 1.23308900e-02
-3.98778000 1.24478000e-02
-3.95778000 1.25687300e-02
-3.92778000 1.26940700e-02
-3.89778000 1.28241900e-02
-3.86778000 1.29595500e-02
-3.83778000 1.31006300e-02
-3.80778000 1.32480800e-02
-3.77778000 1.34025300e-02
-3.74778000 1.35648000e-02
-3.71778000 1.37358000e-02
-3.68778000 1.39166600e-02
-3.65778000 1.41086800e-02
-3.62778000 1.43134100e-02
-3.59778000 1.45327400e-02
-3.56778000 1.47689600e-02
-3.53778000 1.50248800e-02
-3.50778000 1.53039600e-02
-3.46653000 1.57338900e-02
-3.43653000 1.60878400e-02
-3.40653000 1.64852100e-02
-3.37653000 1.69364000e-02
-3.34653000 1.74552200e-02
-3.31653000 1.80605200e-02
-3.28653000 1.87785200e-02
-3.25653000 1.96467100e-02
-3.22653000 2.07201100e-02
-3.19653000 2.20823900e-02
-3.16653000 2.38657200e-02
-3.13653000 2.62888400e-02
-3.10653000 2.97348000e-02
-3.07653000 3.49200800e-02
-3.04653000 4.32914000e-02
-3.01653000 5.80003000e-02
-2.98653000 8.59571000e-02
-2.95653000 1.35981000e-01
-2.92653000 1.79142200e-01
-2.89653000 1.80682900e-01
-2.85527000 1.75612400e-01
-2.82527000 1.21685000e-01
-2.79527000 7.99800000e-02
-2.76527000 5.92443000e-02
-2.73527000 4.98592000e-02
-2.70527000 4.70913000e-02
-2.67527000 4.99729000e-02
-2.64527000 5.86820000e-02
-2.61527000 7.17168000e-02
-2.58527000 9.20075000e-02
-2.55527000 9.88866000e-02
-2.52527000 7.94399000e-02
-2.49527000 6.40858000e-02
-2.46527000 5.99593000e-02
-2.43527000 5.49623000e-02
-2.40527000 4.75856000e-02
-2.37527000 4.15279000e-02
-2.34527000 3.77746000e-02
-2.31527000 3.60647000e-02
-2.28527000 3.52189000e-02
-2.24401000 3.47719000e-02
-2.21401000 3.56159000e-02
-2.18401000 3.74871000e-02
-2.15401000 4.03179000e-02
-2.12401000 4.29318000e-02
-2.09401000 4.56318000e-02
-2.06401000 4.98945000e-02
-2.03401000 5.60526000e-02
-2.00401000 6.51227000e-02
-1.97401000 7.89721000e-02
-1.94401000 1.01138600e-01
-1.91401000 1.39244300e-01
-1.88401000 2.10341700e-01
-1.85401000 3.45027900e-01
-1.82401000 5.12498000e-01
-1.79401000 5.28590000e-01
-1.76401000 5.38207000e-01
-1.73401000 5.55982800e-01
-1.70401000 4.03494800e-01
-1.67401000 2.77519400e-01
-1.63276000 2.26662400e-01
-1.60276000 2.12739600e-01
-1.57276000 1.64490800e-01
-1.54276000 1.25154000e-01
-1.51276000 1.08120700e-01
-1.48276000 1.07442400e-01
-1.45276000 1.23809800e-01
-1.42276000 1.66792200e-01
-1.39276000 2.41782000e-01
-1.36276000 2.96256600e-01
-1.33276000 2.85365600e-01
-1.30276000 2.02161200e-01
-1.27276000 1.39409300e-01
-1.24276000 1.13561500e-01
-1.21276000 1.02377700e-01
-1.18276000 8.78526000e-02
-1.15276000 8.02583000e-02
-1.12276000 8.33031000e-02
-1.09276000 8.97183000e-02
-1.06276000 8.02723000e-02
-1.02150000 6.73589000e-02
-0.99150000 6.89052000e-02
-0.96150000 7.57250000e-02
-0.93150000 7.26679000e-02
-0.90150000 6.47944000e-02
-0.87150000 6.38203000e-02
-0.84150000 7.15671000e-02
-0.81150000 8.82770000e-02
-0.78150000 9.32039000e-02
-0.75150000 7.53350000e-02
-0.72150000 6.15752000e-02
-0.69150000 5.49266000e-02
-0.66150000 5.18541000e-02
-0.63150000 5.04352000e-02
-0.60150000 4.99431000e-02
-0.57150000 5.01782000e-02
-0.54150000 5.10287000e-02
-0.51150000 5.25308000e-02
-0.48150000 5.45197000e-02
-0.45150000 5.60095000e-02
-0.41024300 5.79436000e-02
-0.38024300 6.03621000e-02
-0.35024300 6.36988000e-02
-0.32024300 6.84044000e-02
-0.29024300 7.53152000e-02
-0.26024300 8.61548000e-02
-0.23024300 1.05208500e-01
-0.20024300 1.40913900e-01
-0.17024300 1.87354600e-01
-0.14024300 1.82718800e-01
-0.11024300 1.52093300e-01
-0.08024310 1.46397800e-01
-0.05024310 1.53843500e-01
-0.02024310 1.58443400e-01
0.00975692 1.64133200e-01
0.03975690 1.48399500e-01
0.06975690 1.35893200e-01
0.09975690 1.36597300e-01
0.12975700 1.35625600e-01
0.15975700 1.32995600e-01
0.20101300 1.42007800e-01
0.23101300 1.58807000e-01
0.26101300 1.84817800e-01
0.29101300 2.29888800e-01
0.32101300 2.80116600e-01
0.35101300 2.74669000e-01
0.38101300 2.42681000e-01
0.41101300 2.27283200e-01
0.44101300 2.34904600e-01
0.47101300 2.61243700e-01
0.50101300 2.85213600e-01
0.53101300 2.87889200e-01
0.56101300 2.98066400e-01
0.59101300 3.22737200e-01
0.62101300 3.58948000e-01
0.65101300 4.07277000e-01
0.68101300 4.72147000e-01
0.71101300 5.60570000e-01
0.74101300 6.85740000e-01
0.77101300 8.72288000e-01
