# E(MeV)  S_GAMTGAMT(K=0) for Tc105_DDPCX
-2.97057000 4.08901000e-02
-2.94057000 3.59209000e-02
-2.91057000 3.25217000e-02
-2.88057000 3.01779000e-02
-2.85057000 2.85746000e-02
-2.82057000 2.75120000e-02
-2.79057000 2.68593000e-02
-2.76057000 2.65288000e-02
-2.73057000 2.64612000e-02
-2.70057000 2.66160000e-02
-2.67057000 2.69661000e-02
-2.64057000 2.74939000e-02
-2.59229000 2.86926000e-02
-2.56229000 2.96497000e-02
-2.53229000 3.07721000e-02
-2.50229000 3.20669000e-02
-2.47229000 3.35451000e-02
-2.44229000 3.52218000e-02
-2.41229000 3.71168000e-02
-2.38229000 3.92548000e-02
-2.35229000 4.16664000e-02
-2.32229000 4.43894000e-02
-2.29229000 4.74700000e-02
-2.26229000 5.09652000e-02
-2.21401000 5.76447000e-02
-2.18401000 6.25966000e-02
-2.15401000 6.83088000e-02
-2.12401000 7.49401000e-02
-2.09401000 8.26942000e-02
-2.06401000 9.18353000e-02
-2.03401000 1.02711000e-01
-2.00401000 1.15786000e-01
-1.97401000 1.31693000e-01
-1.94401000 1.51308000e-01
-1.91401000 1.75873000e-01
-1.88401000 2.07197000e-01
-1.83572000 2.79198000e-01
-1.80572000 3.45078000e-01
-1.77572000 4.37625000e-01
-1.74572000 5.73062000e-01
-1.71572000 7.81573000e-01
-1.68572000 1.12356000e+00
-1.65572000 1.72970000e+00
-1.62572000 2.89820000e+00
-1.59572000 5.21427000e+00
-1.56572000 8.39662000e+00
-1.53572000 7.85220000e+00
-1.50572000 4.62018000e+00
-1.45744000 1.89613000e+00
-1.42744000 1.21696000e+00
-1.39744000 8.40641000e-01
-1.36744000 6.15157000e-01
-1.33744000 4.71249000e-01
-1.30744000 3.74871000e-01
-1.27744000 3.08059000e-01
-1.24744000 2.60803000e-01
-1.21744000 2.27381000e-01
-1.18744000 2.04687000e-01
-1.15744000 1.91661000e-01
-1.12744000 1.89663000e-01
-1.07915000 2.20509000e-01
-1.04915000 2.39067000e-01
-1.01915000 2.25902000e-01
-0.98915200 2.28246000e-01
-0.95915200 2.66620000e-01
-0.92915200 3.59746000e-01
-0.89915200 5.59217000e-01
-0.86915200 9.39176000e-01
-0.83915200 1.23511000e+00
-0.80915200 9.11019000e-01
-0.77915200 5.30097000e-01
-0.74915200 3.26863000e-01
-0.70086800 1.85385000e-01
-0.67086800 1.44598000e-01
-0.64086800 1.19625000e-01
-0.61086800 1.03820000e-01
-0.58086800 9.39691000e-02
-0.55086800 8.86471000e-02
-0.52086800 8.77187000e-02
-0.49086800 9.26553000e-02
-0.46086800 1.07791000e-01
-0.43086800 1.38537000e-01
-0.40086800 1.58684000e-01
-0.37086800 1.30264000e-01
-0.32258300 9.26626000e-02
-0.29258300 8.52760000e-02
-0.26258300 8.37087000e-02
-0.23258300 8.57216000e-02
-0.20258300 9.05491000e-02
-0.17258300 9.81494000e-02
-0.14258300 1.08963000e-01
-0.11258300 1.23914000e-01
-0.08258320 1.44598000e-01
-0.05258320 1.73701000e-01
-0.02258320 2.15880000e-01
0.00741676 2.79630000e-01
0.05570120 4.75896000e-01
0.08570120 7.29451000e-01
0.11570100 1.22540000e+00
0.14570100 2.16574000e+00
0.17570100 3.05341000e+00
0.20570100 2.39274000e+00
0.23570100 1.43087000e+00
0.26570100 9.46456000e-01
0.29570100 7.81356000e-01
0.32570100 8.44857000e-01
0.35570100 1.17791000e+00
0.38570100 1.69128000e+00
0.43398600 1.15534000e+00
0.46398600 6.74708000e-01
0.49398600 4.23939000e-01
0.52398600 2.92087000e-01
0.55398600 2.16773000e-01
0.58398600 1.70477000e-01
0.61398600 1.40612000e-01
0.64398600 1.21094000e-01
0.67398600 1.09044000e-01
0.70398600 1.03616000e-01
0.73398600 1.05972000e-01
0.76398600 1.19361000e-01
