# E(MeV)  S_GAMTGAMT(K=1) for Tc105_DDPCX
-2.97057000 2.95412000e-02
-2.94057000 2.32808000e-02
-2.91057000 1.96142000e-02
-2.88057000 1.73931000e-02
-2.85057000 1.60464000e-02
-2.82057000 1.52727000e-02
-2.79057000 1.49067000e-02
-2.76057000 1.48593000e-02
-2.73057000 1.50881000e-02
-2.70057000 1.55854000e-02
-2.67057000 1.63745000e-02
-2.64057000 1.75151000e-02
-2.59229000 2.04004000e-02
-2.56229000 2.32165000e-02
-2.53229000 2.73731000e-02
-2.50229000 3.38228000e-02
-2.47229000 4.45248000e-02
-2.44229000 6.38194000e-02
-2.41229000 1.01549000e-01
-2.38229000 1.73071000e-01
-2.35229000 2.40025000e-01
-2.32229000 1.88015000e-01
-2.29229000 1.12280000e-01
-2.26229000 7.12492000e-02
-2.21401000 4.38036000e-02
-2.18401000 3.65169000e-02
-2.15401000 3.24642000e-02
-2.12401000 3.02557000e-02
-2.09401000 2.91991000e-02
-2.06401000 2.89298000e-02
-2.03401000 2.92506000e-02
-2.00401000 3.00567000e-02
-1.97401000 3.12998000e-02
-1.94401000 3.29697000e-02
-1.91401000 3.50863000e-02
-1.88401000 3.76971000e-02
-1.83572000 4.31439000e-02
-1.80572000 4.74976000e-02
-1.77572000 5.28156000e-02
-1.74572000 5.93671000e-02
-1.71572000 6.75337000e-02
-1.68572000 7.78674000e-02
-1.65572000 9.11862000e-02
-1.62572000 1.08741000e-01
-1.59572000 1.32517000e-01
-1.56572000 1.65805000e-01
-1.53572000 2.14351000e-01
-1.50572000 2.88838000e-01
-1.45744000 5.25879000e-01
-1.42744000 8.43578000e-01
-1.39744000 1.47622000e+00
-1.36744000 2.58499000e+00
-1.33744000 3.12703000e+00
-1.30744000 2.09609000e+00
-1.27744000 1.17421000e+00
-1.24744000 7.01832000e-01
-1.21744000 4.62550000e-01
-1.18744000 3.32559000e-01
-1.15744000 2.57809000e-01
-1.12744000 2.14104000e-01
-1.07915000 1.83152000e-01
-1.04915000 1.82859000e-01
-1.01915000 1.98475000e-01
-0.98915200 2.37246000e-01
-0.95915200 3.17267000e-01
-0.92915200 4.79743000e-01
-0.89915200 8.01575000e-01
-0.86915200 1.21493000e+00
-0.83915200 1.09241000e+00
-0.80915200 6.78142000e-01
-0.77915200 4.49652000e-01
-0.74915200 3.70709000e-01
-0.70086800 2.82935000e-01
-0.67086800 2.23601000e-01
-0.64086800 2.04477000e-01
-0.61086800 2.23514000e-01
-0.58086800 2.93356000e-01
-0.55086800 4.42832000e-01
-0.52086800 6.05648000e-01
-0.49086800 5.89206000e-01
-0.46086800 4.37482000e-01
-0.43086800 3.34469000e-01
-0.40086800 3.38827000e-01
-0.37086800 3.93778000e-01
-0.32258300 2.66662000e-01
-0.29258300 1.94029000e-01
-0.26258300 1.66353000e-01
-0.23258300 1.74871000e-01
-0.20258300 1.87073000e-01
-0.17258300 1.54214000e-01
-0.14258300 1.22700000e-01
-0.11258300 1.11097000e-01
-0.08258320 1.14057000e-01
-0.05258320 1.30487000e-01
-0.02258320 1.65909000e-01
0.00741676 2.36523000e-01
0.05570120 5.29043000e-01
0.08570120 8.09497000e-01
0.11570100 7.27951000e-01
0.14570100 4.40657000e-01
0.17570100 2.69193000e-01
0.20570100 1.86280000e-01
0.23570100 1.46441000e-01
0.26570100 1.29300000e-01
0.29570100 1.27313000e-01
0.32570100 1.39720000e-01
0.35570100 1.71981000e-01
0.38570100 2.40198000e-01
0.43398600 5.26525000e-01
0.46398600 7.70602000e-01
0.49398600 6.55132000e-01
0.52398600 4.03982000e-01
0.55398600 2.68455000e-01
0.58398600 2.16887000e-01
0.61398600 2.19955000e-01
0.64398600 2.82513000e-01
0.67398600 4.28842000e-01
0.70398600 5.49524000e-01
0.73398600 4.12088000e-01
0.76398600 2.47873000e-01
