# E(MeV)  S_NSDRNSDR(K=1) for Tc105_DDPCX
-2.97057000 -1.20569000e-02
-2.94057000 -1.17795000e-02
-2.91057000 -1.15045000e-02
-2.88057000 -1.12320000e-02
-2.85057000 -1.09618000e-02
-2.82057000 -1.06938000e-02
-2.79057000 -1.04279000e-02
-2.76057000 -1.01640000e-02
-2.73057000 -9.90195000e-03
-2.70057000 -9.64174000e-03
-2.67057000 -9.38322000e-03
-2.64057000 -9.12628000e-03
-2.59229000 -8.71580000e-03
-2.56229000 -8.46247000e-03
-2.53229000 -8.21031000e-03
-2.50229000 -7.95918000e-03
-2.47229000 -7.70896000e-03
-2.44229000 -7.45950000e-03
-2.41229000 -7.21065000e-03
-2.38229000 -6.96224000e-03
-2.35229000 -6.71409000e-03
-2.32229000 -6.46601000e-03
-2.29229000 -6.21778000e-03
-2.26229000 -5.96916000e-03
-2.21401000 -5.56751000e-03
-2.18401000 -5.31653000e-03
-2.15401000 -5.06403000e-03
-2.12401000 -4.80957000e-03
-2.09401000 -4.55267000e-03
-2.06401000 -4.29274000e-03
-2.03401000 -4.02910000e-03
-2.00401000 -3.76094000e-03
-1.97401000 -3.48729000e-03
-1.94401000 -3.20696000e-03
-1.91401000 -2.91850000e-03
-1.88401000 -2.62010000e-03
-1.83572000 -2.11300000e-03
-1.80572000 -1.77635000e-03
-1.77572000 -1.41811000e-03
-1.74572000 -1.03250000e-03
-1.71572000 -6.11766000e-04
-1.68572000 -1.45283000e-04
-1.65572000 3.81833000e-04
-1.62572000 9.90942000e-04
-1.59572000 1.71357000e-03
-1.56572000 2.59775000e-03
-1.53572000 3.71947000e-03
-1.50572000 5.20437000e-03
-1.45744000 8.97626000e-03
-1.42744000 1.29852000e-02
-1.39744000 1.96761000e-02
-1.36744000 3.19089000e-02
-1.33744000 5.60389000e-02
-1.30744000 9.91395000e-02
-1.27744000 1.24496000e-01
-1.24744000 8.58681000e-02
-1.21744000 4.83795000e-02
-1.18744000 2.90320000e-02
-1.15744000 1.92948000e-02
-1.12744000 1.40309000e-02
-1.07915000 9.74584000e-03
-1.04915000 8.34684000e-03
-1.01915000 7.45636000e-03
-0.98915200 6.88912000e-03
-0.95915200 6.53718000e-03
-0.92915200 6.33452000e-03
-0.89915200 6.23913000e-03
-0.86915200 6.22331000e-03
-0.83915200 6.26829000e-03
-0.80915200 6.36109000e-03
-0.77915200 6.49254000e-03
-0.74915200 6.65608000e-03
-0.70086800 6.97529000e-03
-0.67086800 7.20356000e-03
-0.64086800 7.45231000e-03
-0.61086800 7.72021000e-03
-0.58086800 8.00646000e-03
-0.55086800 8.31068000e-03
-0.52086800 8.63282000e-03
-0.49086800 8.97316000e-03
-0.46086800 9.33228000e-03
-0.43086800 9.71105000e-03
-0.40086800 1.01106000e-02
-0.37086800 1.05325000e-02
-0.32258300 1.12629000e-02
-0.29258300 1.17525000e-02
-0.26258300 1.22730000e-02
-0.23258300 1.28280000e-02
-0.20258300 1.34220000e-02
-0.17258300 1.40605000e-02
-0.14258300 1.47504000e-02
-0.11258300 1.55001000e-02
-0.08258320 1.63209000e-02
-0.05258320 1.72274000e-02
-0.02258320 1.82394000e-02
0.00741676 1.93849000e-02
0.05570120 2.16201000e-02
0.08570120 2.33684000e-02
0.11570100 2.55538000e-02
0.14570100 2.84419000e-02
0.17570100 3.25705000e-02
0.20570100 3.91182000e-02
0.23570100 5.05663000e-02
0.26570100 6.83914000e-02
0.29570100 7.61026000e-02
0.32570100 6.68464000e-02
0.35570100 6.30655000e-02
0.38570100 6.78016000e-02
0.43398600 9.52609000e-02
0.46398600 1.19441000e-01
0.49398600 1.33391000e-01
0.52398600 1.66454000e-01
0.55398600 2.48289000e-01
0.58398600 3.68658000e-01
0.61398600 3.67671000e-01
0.64398600 2.86747000e-01
0.67398600 2.53791000e-01
0.70398600 2.07094000e-01
0.73398600 1.59998000e-01
0.76398600 1.39616000e-01
