# E(MeV)  S_GAMTGAMT(K=0) for Tc141_DDPCX
-22.21550000 1.68970000e-03
-22.18550000 1.69550000e-03
-22.15550000 1.70134000e-03
-22.12550000 1.70720000e-03
-22.09550000 1.71309000e-03
-22.06550000 1.71901000e-03
-22.03550000 1.72496000e-03
-22.00550000 1.73094000e-03
-21.97550000 1.73696000e-03
-21.94550000 1.74300000e-03
-21.91550000 1.74908000e-03
-21.88550000 1.75519000e-03
-21.85550000 1.76134000e-03
-21.82550000 1.76752000e-03
-21.79550000 1.77373000e-03
-21.76550000 1.77999000e-03
-21.73550000 1.78627000e-03
-21.70550000 1.79260000e-03
-21.67550000 1.79897000e-03
-21.64550000 1.80537000e-03
-21.61550000 1.81182000e-03
-21.58550000 1.81830000e-03
-21.55550000 1.82483000e-03
-21.52550000 1.83141000e-03
-21.49550000 1.83803000e-03
-21.46550000 1.84469000e-03
-21.43550000 1.85141000e-03
-21.40550000 1.85818000e-03
-21.37550000 1.86501000e-03
-21.34550000 1.87190000e-03
-21.31550000 1.87885000e-03
-21.28550000 1.88587000e-03
-21.25550000 1.89297000e-03
-21.22550000 1.90015000e-03
-21.19550000 1.90744000e-03
-21.16550000 1.91485000e-03
-21.13550000 1.92240000e-03
-21.10550000 1.93013000e-03
-21.07550000 1.93810000e-03
-21.04550000 1.94639000e-03
-21.01550000 1.95513000e-03
-20.98550000 1.96454000e-03
-20.95550000 1.97501000e-03
-20.92550000 1.98726000e-03
-20.89550000 2.00280000e-03
-20.86550000 2.02485000e-03
-20.83550000 2.06082000e-03
-20.80550000 2.12386000e-03
-20.77550000 2.19535000e-03
-20.74550000 2.17263000e-03
-20.71550000 2.11262000e-03
-20.68550000 2.08141000e-03
-20.65550000 2.06973000e-03
-20.62550000 2.06721000e-03
-20.59550000 2.06912000e-03
-20.56550000 2.07337000e-03
-20.53550000 2.07898000e-03
-20.50550000 2.08541000e-03
-20.47550000 2.09240000e-03
-20.44550000 2.09978000e-03
-20.41550000 2.10744000e-03
-20.38550000 2.11534000e-03
-20.35550000 2.12342000e-03
-20.32550000 2.13165000e-03
-20.29550000 2.14003000e-03
-20.26550000 2.14853000e-03
-20.23550000 2.15715000e-03
-20.20550000 2.16588000e-03
-20.17550000 2.17473000e-03
-20.14550000 2.18367000e-03
-20.11550000 2.19272000e-03
-20.08550000 2.20188000e-03
-20.05550000 2.21115000e-03
-20.02550000 2.22052000e-03
-19.99550000 2.23001000e-03
-19.96550000 2.23961000e-03
-19.91280000 2.25679000e-03
-19.88280000 2.26674000e-03
-19.85280000 2.27683000e-03
-19.82280000 2.28706000e-03
-19.79280000 2.29747000e-03
-19.76280000 2.30805000e-03
-19.73280000 2.31885000e-03
-19.70280000 2.32989000e-03
-19.67280000 2.34122000e-03
-19.64280000 2.35294000e-03
-19.61280000 2.36516000e-03
-19.58280000 2.37812000e-03
-19.55280000 2.39224000e-03
-19.52280000 2.40838000e-03
-19.49280000 2.42844000e-03
-19.46280000 2.45667000e-03
-19.43280000 2.49989000e-03
-19.40280000 2.54235000e-03
-19.37280000 2.53313000e-03
-19.34280000 2.51260000e-03
-19.31280000 2.50766000e-03
-19.28280000 2.51238000e-03
-19.25280000 2.52188000e-03
-19.22280000 2.53402000e-03
-19.19280000 2.54792000e-03
-19.16280000 2.56321000e-03
-19.13280000 2.57980000e-03
-19.10280000 2.59776000e-03
-19.07280000 2.61732000e-03
-19.04280000 2.63883000e-03
-19.01280000 2.66297000e-03
-18.98280000 2.69089000e-03
-18.95280000 2.72468000e-03
-18.92280000 2.76563000e-03
-18.89280000 2.80556000e-03
-18.86280000 2.84631000e-03
-18.83280000 2.90265000e-03
-18.80280000 2.98219000e-03
-18.77280000 3.09688000e-03
-18.74280000 3.27176000e-03
-18.71280000 3.56027000e-03
-18.68280000 4.08289000e-03
-18.65280000 5.10464000e-03
-18.62280000 6.87998000e-03
-18.59280000 7.77855000e-03
-18.56280000 6.26420000e-03
-18.53280000 4.98973000e-03
-18.50280000 4.39957000e-03
-18.47280000 4.09757000e-03
-18.44280000 3.85197000e-03
-18.41280000 3.59404000e-03
-18.38280000 3.46256000e-03
-18.35280000 3.44808000e-03
-18.32280000 3.54896000e-03
-18.29280000 3.77209000e-03
-18.26280000 3.87672000e-03
-18.23280000 3.69796000e-03
-18.20280000 3.57357000e-03
-18.17280000 3.58200000e-03
-18.14280000 3.71542000e-03
-18.11280000 4.03171000e-03
-18.08280000 4.66648000e-03
-18.05280000 5.41431000e-03
-18.02280000 5.16732000e-03
-17.99280000 4.45710000e-03
-17.96280000 4.07840000e-03
-17.93280000 3.91037000e-03
-17.90280000 3.82091000e-03
-17.87280000 3.82701000e-03
-17.84280000 3.93968000e-03
-17.81280000 4.18305000e-03
-17.78280000 4.41247000e-03
-17.75280000 4.36167000e-03
-17.72280000 4.36087000e-03
-17.69280000 4.59023000e-03
-17.66280000 4.96850000e-03
-17.61000000 5.10871000e-03
-17.58000000 5.30532000e-03
-17.55000000 5.42835000e-03
-17.52000000 5.57773000e-03
-17.49000000 5.91763000e-03
-17.46000000 6.61499000e-03
-17.43000000 7.51469000e-03
-17.40000000 8.36761000e-03
-17.37000000 9.28914000e-03
-17.34000000 1.12430000e-02
-17.31000000 1.52092000e-02
-17.28000000 2.28414000e-02
-17.25000000 3.58290000e-02
-17.22000000 4.68585000e-02
-17.19000000 4.79872000e-02
-17.16000000 3.87179000e-02
-17.13000000 2.54713000e-02
-17.10000000 1.69249000e-02
-17.07000000 1.19562000e-02
-17.04000000 9.22522000e-03
-17.01000000 7.65393000e-03
-16.98000000 6.68769000e-03
-16.95000000 6.06159000e-03
-16.92000000 5.64198000e-03
-16.89000000 5.35730000e-03
-16.86000000 5.16819000e-03
-16.83000000 5.05453000e-03
-16.80000000 5.01109000e-03
-16.77000000 5.05035000e-03
-16.74000000 5.21675000e-03
-16.71000000 5.62055000e-03
-16.68000000 6.40483000e-03
-16.65000000 6.97716000e-03
-16.62000000 6.36656000e-03
-16.59000000 5.76367000e-03
-16.56000000 5.60770000e-03
-16.53000000 5.83905000e-03
-16.50000000 6.57643000e-03
-16.47000000 8.05595000e-03
-16.44000000 9.13427000e-03
-16.41000000 7.96090000e-03
-16.38000000 6.64517000e-03
-16.35000000 5.81842000e-03
-16.32000000 5.37499000e-03
-16.29000000 5.16262000e-03
-16.26000000 5.07510000e-03
-16.23000000 5.06758000e-03
-16.20000000 5.13175000e-03
-16.17000000 5.29145000e-03
-16.14000000 5.60551000e-03
-16.11000000 6.03746000e-03
-16.08000000 6.31890000e-03
-16.05000000 6.69038000e-03
-16.02000000 6.93646000e-03
-15.99000000 6.50431000e-03
-15.96000000 6.11835000e-03
-15.93000000 5.93370000e-03
-15.90000000 5.95311000e-03
-15.87000000 6.16362000e-03
-15.84000000 6.61514000e-03
-15.81000000 7.36452000e-03
-15.78000000 7.95123000e-03
-15.75000000 8.33135000e-03
-15.72000000 9.54324000e-03
-15.69000000 1.18661000e-02
-15.66000000 1.28566000e-02
-15.63000000 1.16128000e-02
-15.60000000 1.15483000e-02
-15.57000000 1.36753000e-02
-15.54000000 1.89168000e-02
-15.51000000 2.57829000e-02
-15.48000000 2.34298000e-02
-15.45000000 1.61179000e-02
-15.42000000 1.18238000e-02
-15.39000000 9.81080000e-03
-15.36000000 8.96236000e-03
-15.30720000 8.54359000e-03
-15.27720000 8.23649000e-03
-15.24720000 7.88451000e-03
-15.21720000 7.86102000e-03
-15.18720000 8.21611000e-03
-15.15720000 8.79764000e-03
-15.12720000 9.37384000e-03
-15.09720000 9.48410000e-03
-15.06720000 8.77633000e-03
-15.03720000 8.14709000e-03
-15.00720000 7.89042000e-03
-14.97720000 7.86233000e-03
-14.94720000 7.98958000e-03
-14.91720000 8.27305000e-03
-14.88720000 8.63269000e-03
-14.85720000 8.74600000e-03
-14.82720000 8.82236000e-03
-14.79720000 9.09604000e-03
-14.76720000 9.56618000e-03
-14.73720000 1.01549000e-02
-14.70720000 1.10502000e-02
-14.67720000 1.27146000e-02
-14.64720000 1.54087000e-02
-14.61720000 1.72691000e-02
-14.58720000 1.67705000e-02
-14.55720000 1.62839000e-02
-14.52720000 1.60658000e-02
-14.49720000 1.69128000e-02
-14.46720000 1.97414000e-02
-14.43720000 2.32512000e-02
-14.40720000 2.28896000e-02
-14.37720000 2.12417000e-02
-14.34720000 2.20657000e-02
-14.31720000 2.33656000e-02
-14.28720000 2.25365000e-02
-14.25720000 2.23903000e-02
-14.22720000 2.37312000e-02
-14.19720000 2.63891000e-02
-14.16720000 3.08128000e-02
-14.13720000 3.73538000e-02
-14.10720000 4.40051000e-02
-14.07720000 5.19412000e-02
-14.04720000 6.67631000e-02
-14.01720000 9.44519000e-02
-13.98720000 1.44325000e-01
-13.95720000 2.18295000e-01
-13.92720000 2.70971000e-01
-13.89720000 2.58748000e-01
-13.86720000 2.90609000e-01
-13.83720000 4.32135000e-01
-13.80720000 6.17290000e-01
-13.77720000 5.20621000e-01
-13.74720000 3.06813000e-01
-13.71720000 1.84814000e-01
-13.68720000 1.24809000e-01
-13.65720000 8.96911000e-02
-13.62720000 6.85047000e-02
-13.59720000 5.76310000e-02
-13.56720000 5.30932000e-02
-13.53720000 4.73635000e-02
-13.50720000 3.92072000e-02
-13.47720000 3.41559000e-02
-13.44720000 3.22551000e-02
-13.41720000 3.14806000e-02
-13.38720000 3.10152000e-02
-13.35720000 3.34312000e-02
-13.32720000 3.64249000e-02
-13.29720000 3.26717000e-02
-13.26720000 2.80905000e-02
-13.23720000 2.61285000e-02
-13.20720000 2.59648000e-02
-13.17720000 2.72986000e-02
-13.14720000 3.01604000e-02
-13.11720000 3.57984000e-02
-13.08720000 4.71326000e-02
-13.05720000 6.92825000e-02
-13.00440000 9.60090000e-02
-12.97440000 7.52304000e-02
-12.94440000 6.76869000e-02
-12.91440000 7.62938000e-02
-12.88440000 1.03631000e-01
-12.85440000 1.41702000e-01
-12.82440000 1.25621000e-01
-12.79440000 8.20540000e-02
-12.76440000 5.69018000e-02
-12.73440000 4.54710000e-02
-12.70440000 4.08451000e-02
-12.67440000 3.95711000e-02
-12.64440000 3.99371000e-02
-12.61440000 4.11462000e-02
-12.58440000 4.54163000e-02
-12.55440000 5.45866000e-02
-12.52440000 7.21558000e-02
-12.49440000 1.06072000e-01
-12.46440000 1.71192000e-01
-12.43440000 2.67708000e-01
-12.40440000 2.71733000e-01
-12.37440000 1.80667000e-01
-12.34440000 1.20078000e-01
-12.31440000 9.61071000e-02
-12.28440000 8.84019000e-02
-12.25440000 8.38037000e-02
-12.22440000 7.04022000e-02
-12.19440000 5.54446000e-02
-12.16440000 4.69606000e-02
-12.13440000 4.25094000e-02
-12.10440000 4.16066000e-02
-12.07440000 4.55308000e-02
-12.04440000 5.42250000e-02
-12.01440000 5.61582000e-02
-11.98440000 4.68137000e-02
-11.95440000 4.04121000e-02
-11.92440000 3.86294000e-02
-11.89440000 4.01591000e-02
-11.86440000 4.27274000e-02
-11.83440000 4.30915000e-02
-11.80440000 4.51926000e-02
-11.77440000 5.13511000e-02
-11.74440000 5.72827000e-02
-11.71440000 5.99450000e-02
-11.68440000 6.87940000e-02
-11.65440000 8.60146000e-02
-11.62440000 1.03315000e-01
-11.59440000 1.18908000e-01
-11.56440000 1.36505000e-01
-11.53440000 1.36685000e-01
-11.50440000 1.10854000e-01
-11.47440000 9.73387000e-02
-11.44440000 9.67447000e-02
-11.41440000 1.00846000e-01
-11.38440000 1.01057000e-01
-11.35440000 1.05728000e-01
-11.32440000 1.25421000e-01
-11.29440000 1.59375000e-01
-11.26440000 2.11399000e-01
-11.23440000 2.23576000e-01
-11.20440000 1.76078000e-01
-11.17440000 1.44789000e-01
-11.14440000 1.35745000e-01
-11.11440000 1.42482000e-01
-11.08440000 1.61716000e-01
-11.05440000 1.83427000e-01
-11.02440000 2.05606000e-01
-10.99440000 2.45284000e-01
-10.96440000 3.17478000e-01
-10.93440000 4.42941000e-01
-10.90440000 6.63668000e-01
-10.87440000 1.00399000e+00
-10.84440000 1.35114000e+00
-10.81440000 1.61277000e+00
-10.78440000 1.31501000e+00
-10.75440000 9.80895000e-01
-10.70160000 1.12530000e+00
-10.67160000 1.61699000e+00
-10.64160000 1.84662000e+00
-10.61160000 1.48328000e+00
-10.58160000 1.11420000e+00
-10.55160000 9.10670000e-01
-10.52160000 7.76552000e-01
-10.49160000 7.77654000e-01
-10.46160000 9.68164000e-01
-10.43160000 1.13884000e+00
-10.40160000 9.78684000e-01
-10.37160000 8.47478000e-01
-10.34160000 8.28937000e-01
-10.31160000 9.02678000e-01
-10.28160000 1.12091000e+00
-10.25160000 1.60491000e+00
-10.22160000 2.58574000e+00
-10.19160000 3.76958000e+00
-10.16160000 4.15068000e+00
-10.13160000 4.28212000e+00
-10.10160000 3.33631000e+00
-10.07160000 2.14106000e+00
-10.04160000 1.37170000e+00
-10.01160000 9.47058000e-01
-9.98163000 6.90631000e-01
-9.95163000 5.44123000e-01
-9.92163000 4.67932000e-01
-9.89163000 4.39955000e-01
-9.86163000 4.57014000e-01
-9.83163000 5.28177000e-01
-9.80163000 6.49475000e-01
-9.77163000 8.43115000e-01
-9.74163000 1.19388000e+00
-9.71163000 1.71026000e+00
-9.68163000 2.35289000e+00
-9.65163000 2.14492000e+00
-9.62163000 1.36240000e+00
-9.59163000 8.95524000e-01
-9.56163000 7.09317000e-01
-9.53163000 6.90732000e-01
-9.50163000 7.74472000e-01
-9.47163000 1.02735000e+00
-9.44163000 1.45696000e+00
-9.41163000 1.39380000e+00
-9.38163000 8.92435000e-01
-9.35163000 5.70299000e-01
-9.32163000 4.16545000e-01
-9.29163000 3.49359000e-01
-9.26163000 3.23521000e-01
-9.23163000 3.23452000e-01
-9.20163000 3.43895000e-01
-9.17163000 3.27634000e-01
-9.14163000 3.17103000e-01
-9.11163000 3.60653000e-01
-9.08163000 4.57483000e-01
-9.05163000 5.53215000e-01
-9.02163000 5.32115000e-01
-8.99163000 4.76793000e-01
-8.96163000 4.50864000e-01
-8.93163000 4.53724000e-01
-8.90163000 5.25937000e-01
-8.87163000 6.98197000e-01
-8.84163000 9.79174000e-01
-8.81163000 1.33750000e+00
-8.78163000 1.99747000e+00
-8.75163000 3.02221000e+00
-8.72163000 2.91927000e+00
-8.69163000 1.85975000e+00
-8.66163000 1.22058000e+00
-8.63163000 9.91468000e-01
-8.60163000 1.04182000e+00
-8.57163000 1.35138000e+00
-8.54163000 1.75964000e+00
-8.51163000 1.53307000e+00
-8.48163000 1.05971000e+00
-8.45163000 8.17634000e-01
-8.39885000 7.83453000e-01
-8.36885000 9.84644000e-01
-8.33885000 1.44902000e+00
-8.30885000 2.35277000e+00
-8.27885000 2.92173000e+00
-8.24885000 2.06257000e+00
-8.21885000 1.20527000e+00
-8.18885000 7.64928000e-01
-8.15885000 5.55993000e-01
-8.12885000 4.64973000e-01
-8.09885000 4.29334000e-01
-8.06885000 4.15931000e-01
-8.03885000 3.69778000e-01
-8.00885000 3.35423000e-01
-7.97885000 3.51942000e-01
-7.94885000 4.26727000e-01
-7.91885000 5.87636000e-01
-7.88885000 9.08318000e-01
-7.85885000 1.28189000e+00
-7.82885000 1.08480000e+00
-7.79885000 6.79033000e-01
-7.76885000 4.65545000e-01
-7.73885000 3.78551000e-01
-7.70885000 3.07661000e-01
-7.67885000 2.39349000e-01
-7.64885000 1.93864000e-01
-7.61885000 1.65641000e-01
-7.58885000 1.50409000e-01
-7.55885000 1.43075000e-01
-7.52885000 1.42372000e-01
-7.49885000 1.47538000e-01
-7.46885000 1.56555000e-01
-7.43885000 1.78182000e-01
-7.40885000 2.24054000e-01
-7.37885000 3.12505000e-01
-7.34885000 4.50287000e-01
-7.31885000 6.03918000e-01
-7.28885000 7.53685000e-01
-7.25885000 6.40805000e-01
-7.22885000 4.21578000e-01
-7.19885000 3.05293000e-01
-7.16885000 2.59359000e-01
-7.13885000 2.46833000e-01
-7.10885000 2.67383000e-01
-7.07885000 3.32751000e-01
-7.04885000 4.76195000e-01
-7.01885000 7.73434000e-01
-6.98885000 1.23476000e+00
-6.95885000 1.27995000e+00
-6.92885000 8.47289000e-01
-6.89885000 5.58625000e-01
-6.86885000 4.47006000e-01
-6.83885000 4.50518000e-01
-6.80885000 5.35728000e-01
-6.77885000 6.90420000e-01
-6.74885000 8.18353000e-01
-6.71885000 8.69330000e-01
-6.68885000 7.75026000e-01
-6.65885000 5.42201000e-01
-6.62885000 4.03025000e-01
-6.59885000 3.00753000e-01
-6.56885000 2.19362000e-01
-6.53885000 1.73187000e-01
-6.50885000 1.51025000e-01
-6.47885000 1.47332000e-01
-6.44885000 1.60617000e-01
-6.41885000 1.67097000e-01
-6.38885000 1.56423000e-01
-6.35885000 1.62213000e-01
-6.32885000 1.72532000e-01
-6.29885000 1.51595000e-01
-6.26885000 1.30621000e-01
-6.23885000 1.22921000e-01
-6.20885000 1.23196000e-01
-6.17885000 1.32577000e-01
-6.14885000 1.55425000e-01
-6.09607000 2.13469000e-01
-6.06607000 2.59506000e-01
-6.03607000 3.42054000e-01
-6.00607000 4.59242000e-01
-5.97607000 4.39863000e-01
-5.94607000 3.56941000e-01
-5.91607000 2.88679000e-01
-5.88607000 2.46340000e-01
-5.85607000 2.31782000e-01
-5.82607000 2.25474000e-01
-5.79607000 2.34713000e-01
-5.76607000 2.46871000e-01
-5.73607000 2.92643000e-01
-5.70607000 3.29981000e-01
-5.67607000 2.90824000e-01
-5.64607000 2.68650000e-01
-5.61607000 2.99161000e-01
-5.58607000 3.59275000e-01
-5.55607000 3.86812000e-01
-5.52607000 3.95378000e-01
-5.49607000 4.35626000e-01
-5.46607000 4.65736000e-01
-5.43607000 4.00986000e-01
-5.40607000 3.75138000e-01
-5.37607000 4.30838000e-01
-5.34607000 4.67740000e-01
-5.31607000 4.04126000e-01
-5.28607000 3.65109000e-01
-5.25607000 3.76795000e-01
-5.22607000 4.28466000e-01
-5.19607000 5.29825000e-01
-5.16607000 7.10737000e-01
-5.13607000 1.03636000e+00
-5.10607000 1.64572000e+00
-5.07607000 2.78483000e+00
-5.04607000 4.32329000e+00
-5.01607000 4.34249000e+00
-4.98607000 2.90292000e+00
-4.95607000 2.07642000e+00
-4.92607000 1.94140000e+00
-4.89607000 2.00102000e+00
-4.86607000 1.73456000e+00
-4.83607000 1.19286000e+00
-4.80607000 8.38971000e-01
-4.77607000 6.52457000e-01
-4.74607000 5.56185000e-01
-4.71607000 5.52222000e-01
-4.68607000 6.59066000e-01
-4.65607000 9.13846000e-01
-4.62607000 1.10975000e+00
-4.59607000 8.68654000e-01
-4.56607000 6.16435000e-01
-4.53607000 5.13862000e-01
-4.50607000 4.57421000e-01
-4.47607000 4.16478000e-01
-4.44607000 4.11789000e-01
-4.41607000 4.35270000e-01
-4.38607000 4.99688000e-01
-4.35607000 6.28420000e-01
-4.32607000 8.60084000e-01
-4.29607000 1.23778000e+00
-4.26607000 1.97589000e+00
-4.23607000 3.10068000e+00
-4.20607000 3.32138000e+00
-4.17607000 2.25491000e+00
-4.14607000 1.34286000e+00
-4.11607000 8.76709000e-01
-4.08607000 6.64494000e-01
-4.05607000 5.82921000e-01
-4.02607000 5.07740000e-01
-3.99607000 4.41938000e-01
-3.96607000 4.47793000e-01
-3.93607000 5.04500000e-01
-3.90607000 5.05792000e-01
-3.87607000 4.64732000e-01
-3.84607000 4.19191000e-01
-3.79329000 3.75867000e-01
-3.76329000 3.80194000e-01
-3.73329000 4.14578000e-01
-3.70329000 4.63228000e-01
-3.67329000 5.10787000e-01
-3.64329000 5.88892000e-01
-3.61329000 7.67648000e-01
-3.58329000 9.60358000e-01
-3.55329000 9.29864000e-01
-3.52329000 8.89062000e-01
-3.49329000 9.48978000e-01
-3.46329000 9.09797000e-01
-3.43329000 7.90023000e-01
-3.40329000 8.12790000e-01
-3.37329000 9.29548000e-01
-3.34329000 7.99275000e-01
-3.31329000 6.00344000e-01
-3.28329000 5.25641000e-01
-3.25329000 5.45712000e-01
-3.22329000 6.68746000e-01
-3.19329000 8.69926000e-01
-3.16329000 9.42759000e-01
-3.13329000 8.09146000e-01
-3.10329000 6.51805000e-01
-3.07329000 5.60020000e-01
-3.04329000 5.50813000e-01
-3.01329000 6.11923000e-01
-2.98329000 7.53885000e-01
-2.95329000 1.02974000e+00
-2.92329000 1.51975000e+00
-2.89329000 2.25406000e+00
-2.86329000 3.17441000e+00
-2.83329000 3.33639000e+00
-2.80329000 2.71799000e+00
-2.77329000 2.65031000e+00
-2.74329000 3.53436000e+00
-2.71329000 5.07328000e+00
-2.68329000 4.88150000e+00
-2.65329000 3.56440000e+00
-2.62329000 3.01112000e+00
-2.59329000 2.33826000e+00
-2.56329000 1.53852000e+00
-2.53329000 1.08769000e+00
-2.50329000 8.81336000e-01
-2.47329000 7.57775000e-01
-2.44329000 6.55936000e-01
-2.41329000 5.95447000e-01
-2.38329000 5.59976000e-01
-2.35329000 5.28849000e-01
-2.32329000 5.30832000e-01
-2.29329000 5.82137000e-01
-2.26329000 6.98840000e-01
-2.23329000 8.99192000e-01
-2.20329000 1.20627000e+00
-2.17329000 1.63514000e+00
-2.14329000 2.23660000e+00
-2.11329000 3.03798000e+00
-2.08329000 3.11408000e+00
-2.05329000 2.50479000e+00
-2.02329000 2.03883000e+00
-1.99329000 1.85331000e+00
-1.96329000 2.06635000e+00
-1.93329000 2.47767000e+00
-1.90329000 2.42783000e+00
-1.87329000 2.09976000e+00
-1.84329000 2.06159000e+00
-1.81329000 2.35327000e+00
-1.78329000 3.21316000e+00
-1.75329000 4.82911000e+00
-1.72329000 5.91886000e+00
-1.69329000 5.34555000e+00
-1.66329000 5.31031000e+00
-1.63329000 4.58558000e+00
-1.60329000 3.09592000e+00
-1.57329000 2.17131000e+00
-1.54329000 1.72969000e+00
-1.49051000 1.49008000e+00
-1.46051000 1.51983000e+00
-1.43051000 1.88434000e+00
-1.40051000 2.72303000e+00
-1.37051000 3.43619000e+00
-1.34051000 2.99265000e+00
-1.31051000 2.27046000e+00
-1.28051000 1.75035000e+00
-1.25051000 1.37800000e+00
-1.22051000 1.27828000e+00
-1.19051000 1.43327000e+00
-1.16051000 1.84457000e+00
-1.13051000 2.41207000e+00
-1.10051000 2.62334000e+00
-1.07051000 2.86590000e+00
-1.04051000 3.42089000e+00
-1.01051000 3.74332000e+00
-0.98051100 4.12164000e+00
-0.95051100 5.63614000e+00
-0.92051100 6.98264000e+00
-0.89051100 5.20077000e+00
-0.86051100 3.10888000e+00
-0.83051100 2.00443000e+00
-0.80051100 1.49951000e+00
-0.77051100 1.31678000e+00
-0.74051100 1.26599000e+00
-0.71051100 1.21268000e+00
-0.68051100 1.13091000e+00
-0.65051100 9.14766000e-01
-0.62051100 7.57713000e-01
-0.59051100 6.45018000e-01
-0.56051100 5.27318000e-01
-0.53051100 4.55485000e-01
-0.50051100 4.29527000e-01
-0.47051100 4.44391000e-01
-0.44051100 5.09436000e-01
-0.41051100 6.55060000e-01
-0.38051100 9.19700000e-01
-0.35051100 1.17468000e+00
-0.32051100 1.16982000e+00
-0.29051100 1.01879000e+00
-0.26051100 9.32698000e-01
-0.23051100 8.63207000e-01
-0.20051100 7.40361000e-01
-0.17051100 6.74824000e-01
-0.14051100 7.31159000e-01
-0.11051100 9.00950000e-01
-0.08051080 1.13008000e+00
-0.05051080 1.41146000e+00
-0.02051080 1.55323000e+00
0.00948925 1.44751000e+00
0.03948920 1.28574000e+00
0.06948920 1.04889000e+00
0.09948920 8.61497000e-01
0.12948900 8.36087000e-01
0.15948900 9.94580000e-01
0.18948900 1.31339000e+00
0.21948900 1.59169000e+00
0.24948900 1.60535000e+00
0.27948900 1.37346000e+00
0.30948900 1.32881000e+00
0.33948900 1.60417000e+00
0.36948900 2.07833000e+00
0.39948900 2.11512000e+00
0.42948900 1.65820000e+00
0.45948900 1.34414000e+00
0.48948900 1.12141000e+00
0.51948900 9.56183000e-01
0.54948900 8.23279000e-01
0.57948900 7.22014000e-01
0.60948900 7.24627000e-01
0.63948900 8.21972000e-01
0.66948900 9.16116000e-01
0.69948900 8.79534000e-01
0.72948900 9.21471000e-01
0.75948900 1.20739000e+00
