# E(MeV)  S_GAMTGAMT(K=1) for Th247_DDPCX
-5.03336000 3.98624000e-03
-5.00336000 4.02683000e-03
-4.97336000 4.08145000e-03
-4.94336000 4.16535000e-03
-4.91336000 4.31039000e-03
-4.88336000 4.52342000e-03
-4.85336000 4.56672000e-03
-4.82336000 4.40314000e-03
-4.79336000 4.29562000e-03
-4.76336000 4.25412000e-03
-4.73336000 4.24492000e-03
-4.70336000 4.25116000e-03
-4.67336000 4.26547000e-03
-4.64336000 4.28444000e-03
-4.61336000 4.30637000e-03
-4.58336000 4.33036000e-03
-4.55336000 4.35592000e-03
-4.52336000 4.38276000e-03
-4.49336000 4.41072000e-03
-4.44880000 4.45414000e-03
-4.41880000 4.48461000e-03
-4.38880000 4.51607000e-03
-4.35880000 4.54855000e-03
-4.32880000 4.58212000e-03
-4.29880000 4.61683000e-03
-4.26880000 4.65277000e-03
-4.23880000 4.69006000e-03
-4.20880000 4.72881000e-03
-4.17880000 4.76920000e-03
-4.14880000 4.81141000e-03
-4.11880000 4.85565000e-03
-4.08880000 4.90221000e-03
-4.05880000 4.95141000e-03
-4.02880000 5.00366000e-03
-3.99880000 5.05944000e-03
-3.96880000 5.11938000e-03
-3.93880000 5.18426000e-03
-3.90880000 5.25506000e-03
-3.86423000 5.37400000e-03
-3.83423000 5.46595000e-03
-3.80423000 5.57037000e-03
-3.77423000 5.69082000e-03
-3.74423000 5.83233000e-03
-3.71423000 6.00214000e-03
-3.68423000 6.21106000e-03
-3.65423000 6.47584000e-03
-3.62423000 6.82346000e-03
-3.59423000 7.29977000e-03
-3.56423000 7.98740000e-03
-3.53423000 9.04626000e-03
-3.50423000 1.08108000e-02
-3.47423000 1.40239000e-02
-3.44423000 2.01949000e-02
-3.41423000 3.03769000e-02
-3.38423000 3.66074000e-02
-3.35423000 2.80754000e-02
-3.32423000 1.93843000e-02
-3.27967000 1.42731000e-02
-3.24967000 1.32284000e-02
-3.21967000 1.34207000e-02
-3.18967000 1.53015000e-02
-3.15967000 1.96386000e-02
-3.12967000 2.79675000e-02
-3.09967000 3.90419000e-02
-3.06967000 3.57079000e-02
-3.03967000 2.37146000e-02
-3.00967000 1.64897000e-02
-2.97967000 1.29778000e-02
-2.94967000 1.12926000e-02
-2.91967000 1.06161000e-02
-2.88967000 1.07332000e-02
-2.85967000 1.18665000e-02
-2.82967000 1.44611000e-02
-2.79967000 1.63917000e-02
-2.76967000 1.38597000e-02
-2.73967000 1.10852000e-02
-2.69511000 9.23772000e-03
-2.66511000 8.74602000e-03
-2.63511000 8.51894000e-03
-2.60511000 8.44527000e-03
-2.57511000 8.47789000e-03
-2.54511000 8.60121000e-03
-2.51511000 8.82105000e-03
-2.48511000 9.16722000e-03
-2.45511000 9.70911000e-03
-2.42511000 1.05620000e-02
-2.39511000 1.16738000e-02
-2.36511000 1.29402000e-02
-2.33511000 1.51378000e-02
-2.30511000 1.84114000e-02
-2.27511000 2.38008000e-02
-2.24511000 3.48647000e-02
-2.21511000 4.63840000e-02
-2.18511000 3.86592000e-02
-2.15511000 2.59628000e-02
-2.11055000 1.72937000e-02
-2.08055000 1.52455000e-02
-2.05055000 1.46962000e-02
-2.02055000 1.54016000e-02
-1.99055000 1.75935000e-02
-1.96055000 2.00075000e-02
-1.93055000 1.99662000e-02
-1.90055000 2.06606000e-02
-1.87055000 2.19855000e-02
-1.84055000 2.17105000e-02
-1.81055000 2.28167000e-02
-1.78055000 2.72755000e-02
-1.75055000 3.69849000e-02
-1.72055000 5.01762000e-02
-1.69055000 5.79806000e-02
-1.66055000 5.98660000e-02
-1.63055000 7.07855000e-02
-1.60055000 8.51263000e-02
-1.57055000 7.08810000e-02
-1.52598000 3.80366000e-02
-1.49598000 2.74841000e-02
-1.46598000 2.18661000e-02
-1.43598000 1.88509000e-02
-1.40598000 1.72125000e-02
-1.37598000 1.61807000e-02
-1.34598000 1.55522000e-02
-1.31598000 1.53427000e-02
-1.28598000 1.55325000e-02
-1.25598000 1.61558000e-02
-1.22598000 1.74012000e-02
-1.19598000 1.96800000e-02
-1.16598000 2.33259000e-02
-1.13598000 2.76989000e-02
-1.10598000 3.33107000e-02
-1.07598000 4.22187000e-02
-1.04598000 5.82094000e-02
-1.01598000 7.49750000e-02
-0.98598200 6.22920000e-02
-0.94141900 3.66748000e-02
-0.91141900 2.98880000e-02
-0.88141900 2.52476000e-02
-0.85141900 2.20576000e-02
-0.82141900 2.05122000e-02
-0.79141900 2.00143000e-02
-0.76141900 2.02427000e-02
-0.73141900 2.11356000e-02
-0.70141900 2.28272000e-02
-0.67141900 2.57120000e-02
-0.64141900 3.06837000e-02
-0.61141900 3.97602000e-02
-0.58141900 5.73374000e-02
-0.55141900 8.89203000e-02
-0.52141900 1.18203000e-01
-0.49141900 1.05701000e-01
-0.46141900 7.45346000e-02
-0.43141900 5.55790000e-02
-0.40141900 4.45047000e-02
-0.35685600 3.73508000e-02
-0.32685600 3.65261000e-02
-0.29685600 3.63983000e-02
-0.26685600 3.84278000e-02
-0.23685600 4.46813000e-02
-0.20685600 4.80824000e-02
-0.17685600 4.69016000e-02
-0.14685600 4.21734000e-02
-0.11685600 3.72104000e-02
-0.08685620 3.67937000e-02
-0.05685620 4.16230000e-02
-0.02685620 5.21425000e-02
0.00314379 6.32526000e-02
0.03314380 5.57619000e-02
0.06314380 4.27062000e-02
0.09314380 3.58608000e-02
0.12314400 3.32017000e-02
0.15314400 3.29517000e-02
0.18314400 3.47175000e-02
0.22770700 4.06423000e-02
0.25770700 4.24932000e-02
0.28770700 4.23622000e-02
0.31770700 4.56059000e-02
0.34770700 5.46859000e-02
0.37770700 6.77473000e-02
0.40770700 6.91835000e-02
0.43770700 6.27598000e-02
0.46770700 6.01466000e-02
0.49770700 6.01403000e-02
0.52770700 5.84274000e-02
0.55770700 5.59982000e-02
0.58770700 5.54799000e-02
0.61770700 5.71468000e-02
0.64770700 6.20743000e-02
0.67770700 7.00663000e-02
0.70770700 8.13449000e-02
0.73770700 9.48405000e-02
0.76770700 9.50620000e-02
