# E(MeV)  S_GAMTGAMT(K=1) for Th243_DDPCX
-4.37721000 3.71472000e-03
-4.34721000 3.73545000e-03
-4.31721000 3.75643000e-03
-4.28721000 3.77768000e-03
-4.25721000 3.79922000e-03
-4.22721000 3.82105000e-03
-4.19721000 3.84319000e-03
-4.16721000 3.86567000e-03
-4.13721000 3.88850000e-03
-4.10721000 3.91174000e-03
-4.07721000 3.93542000e-03
-4.04721000 3.95965000e-03
-4.01721000 3.98458000e-03
-3.98721000 4.01053000e-03
-3.95721000 4.03815000e-03
-3.92721000 4.06895000e-03
-3.89721000 4.10522000e-03
-3.85827000 4.14843000e-03
-3.82827000 4.16397000e-03
-3.79827000 4.18156000e-03
-3.76827000 4.20448000e-03
-3.73827000 4.23044000e-03
-3.70827000 4.25821000e-03
-3.67827000 4.28726000e-03
-3.64827000 4.31741000e-03
-3.61827000 4.34859000e-03
-3.58827000 4.38084000e-03
-3.55827000 4.41424000e-03
-3.52827000 4.44891000e-03
-3.49827000 4.48504000e-03
-3.46827000 4.52292000e-03
-3.43827000 4.56301000e-03
-3.40827000 4.60609000e-03
-3.37827000 4.65368000e-03
-3.33932000 4.72787000e-03
-3.30932000 4.80383000e-03
-3.27932000 4.89521000e-03
-3.24932000 4.94286000e-03
-3.21932000 4.95549000e-03
-3.18932000 4.98787000e-03
-3.15932000 5.03940000e-03
-3.12932000 5.10400000e-03
-3.09932000 5.17974000e-03
-3.06932000 5.26712000e-03
-3.03932000 5.36821000e-03
-3.00932000 5.48652000e-03
-2.97932000 5.62736000e-03
-2.94932000 5.79872000e-03
-2.91932000 6.01285000e-03
-2.88932000 6.28916000e-03
-2.85932000 6.65981000e-03
-2.82037000 7.37937000e-03
-2.79037000 8.26650000e-03
-2.76037000 9.72308000e-03
-2.73037000 1.23396000e-02
-2.70037000 1.74078000e-02
-2.67037000 2.62257000e-02
-2.64037000 3.13616000e-02
-2.61037000 2.58530000e-02
-2.58037000 2.16362000e-02
-2.55037000 1.96646000e-02
-2.52037000 1.93542000e-02
-2.49037000 1.89610000e-02
-2.46037000 1.91282000e-02
-2.43037000 2.01624000e-02
-2.40037000 1.66171000e-02
-2.37037000 1.24095000e-02
-2.34037000 1.01403000e-02
-2.30142000 8.91462000e-03
-2.27142000 8.72339000e-03
-2.24142000 8.78809000e-03
-2.21142000 8.42155000e-03
-2.18142000 8.04978000e-03
-2.15142000 7.98768000e-03
-2.12142000 7.92164000e-03
-2.09142000 7.74839000e-03
-2.06142000 7.71196000e-03
-2.03142000 7.83573000e-03
-2.00142000 8.12567000e-03
-1.97142000 8.66286000e-03
-1.94142000 9.67016000e-03
-1.91142000 1.16154000e-02
-1.88142000 1.44649000e-02
-1.85142000 1.46338000e-02
-1.82142000 1.22621000e-02
-1.78247000 1.07445000e-02
-1.75247000 1.07510000e-02
-1.72247000 1.15677000e-02
-1.69247000 1.32837000e-02
-1.66247000 1.60103000e-02
-1.63247000 2.11287000e-02
-1.60247000 2.65269000e-02
-1.57247000 2.30925000e-02
-1.54247000 1.75467000e-02
-1.51247000 1.48961000e-02
-1.48247000 1.36755000e-02
-1.45247000 1.29831000e-02
-1.42247000 1.29570000e-02
-1.39247000 1.35036000e-02
-1.36247000 1.45832000e-02
-1.33247000 1.63722000e-02
-1.30247000 1.92923000e-02
-1.26352000 2.63392000e-02
-1.23352000 3.71818000e-02
-1.20352000 5.86910000e-02
-1.17352000 9.70365000e-02
-1.14352000 1.19060000e-01
-1.11352000 8.49396000e-02
-1.08352000 5.27025000e-02
-1.05352000 3.69147000e-02
-1.02352000 2.96391000e-02
-0.99352400 2.48788000e-02
-0.96352400 2.15778000e-02
-0.93352400 2.00353000e-02
-0.90352400 1.98801000e-02
-0.87352400 2.09568000e-02
-0.84352400 2.35519000e-02
-0.81352400 2.86154000e-02
-0.78352400 3.84675000e-02
-0.74457500 6.65078000e-02
-0.71457500 9.60445000e-02
-0.68457500 9.27303000e-02
-0.65457500 7.90394000e-02
-0.62457500 8.70771000e-02
-0.59457500 9.28431000e-02
-0.56457500 6.83484000e-02
-0.53457500 4.59799000e-02
-0.50457500 3.27038000e-02
-0.47457500 2.53147000e-02
-0.44457500 2.12887000e-02
-0.41457500 1.90434000e-02
-0.38457500 1.76875000e-02
-0.35457500 1.67131000e-02
-0.32457500 1.56926000e-02
-0.29457500 1.49431000e-02
-0.26457500 1.45397000e-02
-0.22562700 1.44019000e-02
-0.19562700 1.45722000e-02
-0.16562700 1.48182000e-02
-0.13562700 1.49006000e-02
-0.10562700 1.51827000e-02
-0.07562700 1.55927000e-02
-0.04562700 1.57835000e-02
-0.01562700 1.62304000e-02
0.01437300 1.72663000e-02
0.04437300 1.89794000e-02
0.07437300 2.07226000e-02
0.10437300 2.32005000e-02
0.13437300 2.82298000e-02
0.16437300 3.23804000e-02
0.19437300 2.93493000e-02
0.22437300 2.62671000e-02
0.25437300 2.63635000e-02
0.29332200 2.92047000e-02
0.32332200 3.32383000e-02
0.35332200 4.23118000e-02
0.38332200 5.98348000e-02
0.41332200 8.24842000e-02
0.44332200 9.04544000e-02
0.47332200 7.60474000e-02
0.50332200 5.99322000e-02
0.53332200 4.60406000e-02
0.56332200 3.65081000e-02
0.59332200 3.13296000e-02
0.62332200 2.92791000e-02
0.65332200 2.96232000e-02
0.68332200 3.15388000e-02
0.71332200 3.16548000e-02
0.74332200 3.05557000e-02
0.77332200 3.12875000e-02
