# E(MeV)  S_GAMTGAMT(Total=K0+2*K1) for Th243_DDPCX
-4.37721000 1.12110300e-02
-4.34721000 1.12755400e-02
-4.31721000 1.13408900e-02
-4.28721000 1.14071300e-02
-4.25721000 1.14743100e-02
-4.22721000 1.15424400e-02
-4.19721000 1.16115800e-02
-4.16721000 1.16818100e-02
-4.13721000 1.17531700e-02
-4.10721000 1.18257900e-02
-4.07721000 1.18997600e-02
-4.04721000 1.19753200e-02
-4.01721000 1.20528000e-02
-3.98721000 1.21328600e-02
-3.95721000 1.22168300e-02
-3.92721000 1.23077600e-02
-3.89721000 1.24102800e-02
-3.85827000 1.25366500e-02
-3.82827000 1.25993400e-02
-3.79827000 1.26669200e-02
-3.76827000 1.27460100e-02
-3.73827000 1.28321000e-02
-3.70827000 1.29228000e-02
-3.67827000 1.30171200e-02
-3.64827000 1.31148000e-02
-3.61827000 1.32158200e-02
-3.58827000 1.33203800e-02
-3.55827000 1.34287800e-02
-3.52827000 1.35414300e-02
-3.49827000 1.36589100e-02
-3.46827000 1.37820300e-02
-3.43827000 1.39120000e-02
-3.40827000 1.40507000e-02
-3.37827000 1.42016000e-02
-3.33932000 1.44278700e-02
-3.30932000 1.46448700e-02
-3.27932000 1.48980100e-02
-3.24932000 1.50700400e-02
-3.21932000 1.51797100e-02
-3.18932000 1.53382700e-02
-3.15932000 1.55468200e-02
-3.12932000 1.57962400e-02
-3.09932000 1.60868800e-02
-3.06932000 1.64255900e-02
-3.03932000 1.68248900e-02
-3.00932000 1.73041500e-02
-2.97932000 1.78927700e-02
-2.94932000 1.86363500e-02
-2.91932000 1.96082100e-02
-2.88932000 2.09318600e-02
-2.85932000 2.28278000e-02
-2.82037000 2.68828400e-02
-2.79037000 3.24983000e-02
-2.76037000 4.28601600e-02
-2.73037000 6.25653000e-02
-2.70037000 8.93302000e-02
-2.67037000 9.91039000e-02
-2.64037000 9.18632000e-02
-2.61037000 7.08081000e-02
-2.58037000 5.73824000e-02
-2.55037000 5.08224000e-02
-2.52037000 4.87505000e-02
-2.49037000 4.71183100e-02
-2.46037000 4.69236900e-02
-2.43037000 4.87263200e-02
-2.40037000 4.16476000e-02
-2.37037000 3.34867200e-02
-2.34037000 2.89019600e-02
-2.30142000 2.59080100e-02
-2.27142000 2.53133300e-02
-2.24142000 2.53819700e-02
-2.21142000 2.46656700e-02
-2.18142000 2.39760100e-02
-2.15142000 2.39466600e-02
-2.12142000 2.39503100e-02
-2.09142000 2.37788900e-02
-2.06142000 2.39232700e-02
-2.03142000 2.44372200e-02
-2.00142000 2.53444400e-02
-1.97142000 2.68252900e-02
-1.94142000 2.93535200e-02
-1.91142000 3.39090000e-02
-1.88142000 4.04961000e-02
-1.85142000 4.20675000e-02
-1.82142000 3.91247000e-02
-1.78247000 4.00244000e-02
-1.75247000 4.55983000e-02
-1.72247000 5.76969000e-02
-1.69247000 8.17751000e-02
-1.66247000 1.18017500e-01
-1.63247000 1.28917800e-01
-1.60247000 1.09859200e-01
-1.57247000 8.32725000e-02
-1.54247000 6.29840000e-02
-1.51247000 5.40089000e-02
-1.48247000 5.14753000e-02
-1.45247000 5.35573000e-02
-1.42247000 5.82924000e-02
-1.39247000 5.70241000e-02
-1.36247000 5.46989000e-02
-1.33247000 5.68668000e-02
-1.30247000 6.40673000e-02
-1.26352000 8.42505000e-02
-1.23352000 1.16204200e-01
-1.20352000 1.79793700e-01
-1.17352000 2.96488000e-01
-1.14352000 3.85456000e-01
-1.11352000 2.98232200e-01
-1.08352000 1.93464200e-01
-1.05352000 1.34042100e-01
-1.02352000 1.00763300e-01
-0.99352400 8.10145000e-02
-0.96352400 6.89245000e-02
-0.93352400 6.27723000e-02
-0.90352400 6.06925000e-02
-0.87352400 6.19003000e-02
-0.84352400 6.67875000e-02
-0.81352400 7.72312000e-02
-0.78352400 9.80777000e-02
-0.74457500 1.57689900e-01
-0.71457500 2.19832200e-01
-0.68457500 2.12791700e-01
-0.65457500 1.85535200e-01
-0.62457500 2.04910500e-01
-0.59457500 2.19856500e-01
-0.56457500 1.68804000e-01
-0.53457500 1.21967900e-01
-0.50457500 9.60794000e-02
-0.47457500 8.45566000e-02
-0.44457500 8.35092000e-02
-0.41457500 8.73293000e-02
-0.38457500 8.38911000e-02
-0.35457500 7.95211000e-02
-0.32457500 7.67687000e-02
-0.29457500 7.43647000e-02
-0.26457500 7.54790000e-02
-0.22562700 8.27838000e-02
-0.19562700 9.06599000e-02
-0.16562700 9.69948000e-02
-0.13562700 1.06476400e-01
-0.10562700 1.21022600e-01
-0.07562700 1.41704400e-01
-0.04562700 1.76214000e-01
-0.01562700 2.37610800e-01
0.01437300 3.48094600e-01
0.04437300 4.79051800e-01
0.07437300 5.15208200e-01
0.10437300 5.57078000e-01
0.13437300 6.41245600e-01
0.16437300 6.47501800e-01
0.19437300 5.98018600e-01
0.22437300 6.82719200e-01
0.25437300 9.93315000e-01
0.29332200 1.88367940e+00
0.32332200 2.21910660e+00
0.35332200 1.52775360e+00
0.38332200 9.32935600e-01
0.41332200 6.53121400e-01
0.44332200 5.01838800e-01
0.47332200 3.79389800e-01
0.50332200 2.90659400e-01
0.53332200 2.26678200e-01
0.56332200 1.83347200e-01
0.59332200 1.56278600e-01
0.62332200 1.40689500e-01
0.65332200 1.34053900e-01
0.68332200 1.34814900e-01
0.71332200 1.37413700e-01
0.74332200 1.39785400e-01
0.77332200 1.34290800e-01
