# E(MeV)  S_GAMTGAMT(K=0) for Th243_DDPCX
-4.37721000 3.78159000e-03
-4.34721000 3.80464000e-03
-4.31721000 3.82803000e-03
-4.28721000 3.85177000e-03
-4.25721000 3.87587000e-03
-4.22721000 3.90034000e-03
-4.19721000 3.92520000e-03
-4.16721000 3.95047000e-03
-4.13721000 3.97617000e-03
-4.10721000 4.00231000e-03
-4.07721000 4.02892000e-03
-4.04721000 4.05602000e-03
-4.01721000 4.08364000e-03
-3.98721000 4.11180000e-03
-3.95721000 4.14053000e-03
-3.92721000 4.16986000e-03
-3.89721000 4.19984000e-03
-3.85827000 4.23979000e-03
-3.82827000 4.27140000e-03
-3.79827000 4.30380000e-03
-3.76827000 4.33705000e-03
-3.73827000 4.37122000e-03
-3.70827000 4.40638000e-03
-3.67827000 4.44260000e-03
-3.64827000 4.47998000e-03
-3.61827000 4.51864000e-03
-3.58827000 4.55870000e-03
-3.55827000 4.60030000e-03
-3.52827000 4.64361000e-03
-3.49827000 4.68883000e-03
-3.46827000 4.73619000e-03
-3.43827000 4.78598000e-03
-3.40827000 4.83852000e-03
-3.37827000 4.89424000e-03
-3.33932000 4.97213000e-03
-3.30932000 5.03721000e-03
-3.27932000 5.10759000e-03
-3.24932000 5.18432000e-03
-3.21932000 5.26873000e-03
-3.18932000 5.36253000e-03
-3.15932000 5.46802000e-03
-3.12932000 5.58824000e-03
-3.09932000 5.72740000e-03
-3.06932000 5.89135000e-03
-3.03932000 6.08847000e-03
-3.00932000 6.33111000e-03
-2.97932000 6.63805000e-03
-2.94932000 7.03891000e-03
-2.91932000 7.58251000e-03
-2.88932000 8.35354000e-03
-2.85932000 9.50818000e-03
-2.82037000 1.21241000e-02
-2.79037000 1.59653000e-02
-2.76037000 2.34140000e-02
-2.73037000 3.78861000e-02
-2.70037000 5.45146000e-02
-2.67037000 4.66525000e-02
-2.64037000 2.91400000e-02
-2.61037000 1.91021000e-02
-2.58037000 1.41100000e-02
-2.55037000 1.14932000e-02
-2.52037000 1.00421000e-02
-2.49037000 9.19631000e-03
-2.46037000 8.66729000e-03
-2.43037000 8.40152000e-03
-2.40037000 8.41340000e-03
-2.37037000 8.66772000e-03
-2.34037000 8.62136000e-03
-2.30142000 8.07877000e-03
-2.27142000 7.86655000e-03
-2.24142000 7.80579000e-03
-2.21142000 7.82257000e-03
-2.18142000 7.87645000e-03
-2.15142000 7.97130000e-03
-2.12142000 8.10703000e-03
-2.09142000 8.28211000e-03
-2.06142000 8.49935000e-03
-2.03142000 8.76576000e-03
-2.00142000 9.09310000e-03
-1.97142000 9.49957000e-03
-1.94142000 1.00132000e-02
-1.91142000 1.06782000e-02
-1.88142000 1.15663000e-02
-1.85142000 1.27999000e-02
-1.82142000 1.46005000e-02
-1.78247000 1.85354000e-02
-1.75247000 2.40963000e-02
-1.72247000 3.45615000e-02
-1.69247000 5.52077000e-02
-1.66247000 8.59969000e-02
-1.63247000 8.66604000e-02
-1.60247000 5.68054000e-02
-1.57247000 3.70875000e-02
-1.54247000 2.78906000e-02
-1.51247000 2.42167000e-02
-1.48247000 2.41243000e-02
-1.45247000 2.75911000e-02
-1.42247000 3.23784000e-02
-1.39247000 3.00169000e-02
-1.36247000 2.55325000e-02
-1.33247000 2.41224000e-02
-1.30247000 2.54827000e-02
-1.26352000 3.15721000e-02
-1.23352000 4.18406000e-02
-1.20352000 6.24117000e-02
-1.17352000 1.02415000e-01
-1.14352000 1.47336000e-01
-1.11352000 1.28353000e-01
-1.08352000 8.80592000e-02
-1.05352000 6.02127000e-02
-1.02352000 4.14851000e-02
-0.99352400 3.12569000e-02
-0.96352400 2.57689000e-02
-0.93352400 2.27017000e-02
-0.90352400 2.09323000e-02
-0.87352400 1.99867000e-02
-0.84352400 1.96837000e-02
-0.81352400 2.00004000e-02
-0.78352400 2.11427000e-02
-0.74457500 2.46743000e-02
-0.71457500 2.77432000e-02
-0.68457500 2.73311000e-02
-0.65457500 2.74564000e-02
-0.62457500 3.07563000e-02
-0.59457500 3.41703000e-02
-0.56457500 3.21072000e-02
-0.53457500 3.00081000e-02
-0.50457500 3.06718000e-02
-0.47457500 3.39272000e-02
-0.44457500 4.09318000e-02
-0.41457500 4.92425000e-02
-0.38457500 4.85161000e-02
-0.35457500 4.60949000e-02
-0.32457500 4.53835000e-02
-0.29457500 4.44785000e-02
-0.26457500 4.63996000e-02
-0.22562700 5.39800000e-02
-0.19562700 6.15155000e-02
-0.16562700 6.73584000e-02
-0.13562700 7.66752000e-02
-0.10562700 9.06572000e-02
-0.07562700 1.10519000e-01
-0.04562700 1.44647000e-01
-0.01562700 2.05150000e-01
0.01437300 3.13562000e-01
0.04437300 4.41093000e-01
0.07437300 4.73763000e-01
0.10437300 5.10677000e-01
0.13437300 5.84786000e-01
0.16437300 5.82741000e-01
0.19437300 5.39320000e-01
0.22437300 6.30185000e-01
0.25437300 9.40588000e-01
0.29332200 1.82527000e+00
0.32332200 2.15263000e+00
0.35332200 1.44313000e+00
0.38332200 8.13266000e-01
0.41332200 4.88153000e-01
0.44332200 3.20930000e-01
0.47332200 2.27295000e-01
0.50332200 1.70795000e-01
0.53332200 1.34597000e-01
0.56332200 1.10331000e-01
0.59332200 9.36194000e-02
0.62332200 8.21313000e-02
0.65332200 7.48075000e-02
0.68332200 7.17373000e-02
0.71332200 7.41041000e-02
0.74332200 7.86740000e-02
0.77332200 7.17158000e-02
