# E(MeV)  S_GAMTGAMT(Total=K0+2*K1) for Th247_DDPCX
-5.03336000 1.19897300e-02
-5.00336000 1.20974100e-02
-4.97336000 1.22337700e-02
-4.94336000 1.24293800e-02
-4.91336000 1.27480200e-02
-4.88336000 1.32034700e-02
-4.85336000 1.33203800e-02
-4.82336000 1.30245800e-02
-4.79336000 1.28420800e-02
-4.76336000 1.27929800e-02
-4.73336000 1.28100800e-02
-4.70336000 1.28599400e-02
-4.67336000 1.29282200e-02
-4.64336000 1.30086200e-02
-4.61336000 1.30984600e-02
-4.58336000 1.31969500e-02
-4.55336000 1.33046000e-02
-4.52336000 1.34230600e-02
-4.49336000 1.35554900e-02
-4.44880000 1.37908900e-02
-4.41880000 1.39921000e-02
-4.38880000 1.42549000e-02
-4.35880000 1.46305300e-02
-4.32880000 1.52324400e-02
-4.29880000 1.63171700e-02
-4.26880000 1.82741600e-02
-4.23880000 2.00474200e-02
-4.20880000 1.87712200e-02
-4.17880000 1.69757300e-02
-4.14880000 1.60708500e-02
-4.11880000 1.56930900e-02
-4.08880000 1.55657000e-02
-4.05880000 1.55662300e-02
-4.02880000 1.56409300e-02
-3.99880000 1.57651200e-02
-3.96880000 1.59275100e-02
-3.93880000 1.61236700e-02
-3.90880000 1.63533000e-02
-3.86423000 1.67627600e-02
-3.83423000 1.70935200e-02
-3.80423000 1.74803500e-02
-3.77423000 1.79385900e-02
-3.74423000 1.84906600e-02
-3.71423000 1.91696300e-02
-3.68423000 2.00259100e-02
-3.65423000 2.11389500e-02
-3.62423000 2.26394300e-02
-3.59423000 2.47541400e-02
-3.56423000 2.79020000e-02
-3.53423000 3.29164200e-02
-3.50423000 4.15877000e-02
-3.47423000 5.79104000e-02
-3.44423000 8.89105000e-02
-3.41423000 1.30356500e-01
-3.38423000 1.35048500e-01
-3.35423000 9.66411000e-02
-3.32423000 6.83576000e-02
-3.27967000 5.79000000e-02
-3.24967000 5.72350000e-02
-3.21967000 5.03293000e-02
-3.18967000 4.72913000e-02
-3.15967000 5.22911000e-02
-3.12967000 6.69836000e-02
-3.09967000 8.80058500e-02
-3.06967000 8.06580800e-02
-3.03967000 5.62588700e-02
-3.00967000 4.15824300e-02
-2.97967000 3.44967900e-02
-2.94967000 3.12686500e-02
-2.91967000 3.03332400e-02
-2.88967000 3.08899200e-02
-2.85967000 3.27644400e-02
-2.82967000 3.75632200e-02
-2.79967000 4.12904100e-02
-2.76967000 3.62608000e-02
-2.73967000 3.08697600e-02
-2.69511000 2.76655200e-02
-2.66511000 2.72936800e-02
-2.63511000 2.79085800e-02
-2.60511000 2.97861400e-02
-2.57511000 3.37354800e-02
-2.54511000 3.85809200e-02
-2.51511000 3.72893000e-02
-2.48511000 3.35738400e-02
-2.45511000 3.23433200e-02
-2.42511000 3.31086000e-02
-2.39511000 3.46331000e-02
-2.36511000 3.66941000e-02
-2.33511000 4.09244000e-02
-2.30511000 4.75019000e-02
-2.27511000 5.84365000e-02
-2.24511000 8.08162000e-02
-2.21511000 1.04194200e-01
-2.18511000 8.91752000e-02
-2.15511000 6.43181000e-02
-2.11055000 4.80263000e-02
-2.08055000 4.48672000e-02
-2.05055000 4.49794000e-02
-2.02055000 4.80010000e-02
-1.99055000 5.46138000e-02
-1.96055000 6.26898000e-02
-1.93055000 6.76580000e-02
-1.90055000 7.73444000e-02
-1.87055000 9.27784000e-02
-1.84055000 1.11420300e-01
-1.81055000 1.50441400e-01
-1.78055000 2.05621000e-01
-1.75055000 2.28938800e-01
-1.72055000 2.57798400e-01
-1.69055000 2.71323200e-01
-1.66055000 2.29862000e-01
-1.63055000 2.11832200e-01
-1.60055000 2.19154400e-01
-1.57055000 1.79729700e-01
-1.52598000 1.05435000e-01
-1.49598000 8.13618000e-02
-1.46598000 6.85473000e-02
-1.43598000 6.18840000e-02
-1.40598000 5.85368000e-02
-1.37598000 5.67136000e-02
-1.34598000 5.59498000e-02
-1.31598000 5.63593000e-02
-1.28598000 5.83128000e-02
-1.25598000 6.22090000e-02
-1.22598000 6.89125000e-02
-1.19598000 7.77116000e-02
-1.16598000 8.59899000e-02
-1.13598000 9.62540000e-02
-1.10598000 1.11345000e-01
-1.07598000 1.35133500e-01
-1.04598000 1.75674700e-01
-1.01598000 2.21747500e-01
-0.98598200 2.15193400e-01
-0.94141900 2.13960600e-01
-0.91141900 2.65034000e-01
-0.88141900 3.77587200e-01
-0.85141900 6.14373200e-01
-0.82141900 1.01098240e+00
-0.79141900 1.11451860e+00
-0.76141900 7.27867400e-01
-0.73141900 4.33975200e-01
-0.70141900 2.89475400e-01
-0.67141900 2.22181000e-01
-0.64141900 1.97180400e-01
-0.61141900 2.02397400e-01
-0.58141900 2.24906800e-01
-0.55141900 2.67166500e-01
-0.52141900 3.12385700e-01
-0.49141900 2.82380000e-01
-0.46141900 2.18122500e-01
-0.43141900 1.81155200e-01
-0.40141900 1.67528900e-01
-0.35685600 1.75125600e-01
-0.32685600 1.97192200e-01
-0.29685600 2.14160600e-01
-0.26685600 2.03297600e-01
-0.23685600 1.86984000e-01
-0.20685600 1.77204700e-01
-0.17685600 1.69919500e-01
-0.14685600 1.62951400e-01
-0.11685600 1.59319900e-01
-0.08685620 1.64571600e-01
-0.05685620 1.84270000e-01
-0.02685620 2.22939000e-01
0.00314379 2.72724200e-01
0.03314380 2.97160800e-01
0.06314380 3.26741400e-01
0.09314380 4.04482600e-01
0.12314400 5.71058400e-01
0.15314400 9.09354400e-01
0.18314400 1.53858500e+00
0.22770700 2.20553460e+00
0.25770700 1.48986640e+00
0.28770700 8.78900400e-01
0.31770700 5.74563800e-01
0.34770700 4.37870800e-01
0.37770700 3.85312600e-01
0.40770700 3.49724000e-01
0.43770700 3.19324600e-01
0.46770700 2.83152200e-01
0.49770700 2.49066600e-01
0.52770700 2.24794800e-01
0.55770700 2.08253900e-01
0.58770700 2.02435100e-01
0.61770700 2.03798200e-01
0.64770700 2.12048200e-01
0.67770700 2.31941200e-01
0.70770700 2.67097800e-01
0.73770700 3.20827000e-01
0.76770700 3.77061000e-01
