# E(MeV)  S_GAMTGAMT(K=1) for Tl216_DDPCX
-8.18051000 2.08372000e-03
-8.15051000 2.09389000e-03
-8.12051000 2.10408000e-03
-8.09051000 2.11428000e-03
-8.06051000 2.12451000e-03
-8.03051000 2.13476000e-03
-8.00051000 2.14505000e-03
-7.97051000 2.15536000e-03
-7.94051000 2.16572000e-03
-7.91051000 2.17611000e-03
-7.88051000 2.18653000e-03
-7.85051000 2.19700000e-03
-7.82051000 2.20752000e-03
-7.79051000 2.21807000e-03
-7.76051000 2.22868000e-03
-7.73051000 2.23933000e-03
-7.70051000 2.25003000e-03
-7.67051000 2.26078000e-03
-7.64051000 2.27158000e-03
-7.61051000 2.28244000e-03
-7.58051000 2.29336000e-03
-7.55051000 2.30433000e-03
-7.52051000 2.31536000e-03
-7.49051000 2.32644000e-03
-7.46051000 2.33759000e-03
-7.43051000 2.34881000e-03
-7.40051000 2.36009000e-03
-7.37051000 2.37143000e-03
-7.34051000 2.38284000e-03
-7.28123000 2.40559000e-03
-7.25123000 2.41721000e-03
-7.22123000 2.42890000e-03
-7.19123000 2.44067000e-03
-7.16123000 2.45252000e-03
-7.13123000 2.46444000e-03
-7.10123000 2.47644000e-03
-7.07123000 2.48852000e-03
-7.04123000 2.50068000e-03
-7.01123000 2.51293000e-03
-6.98123000 2.52526000e-03
-6.95123000 2.53768000e-03
-6.92123000 2.55018000e-03
-6.89123000 2.56278000e-03
-6.86123000 2.57547000e-03
-6.83123000 2.58825000e-03
-6.80123000 2.60112000e-03
-6.77123000 2.61410000e-03
-6.74123000 2.62717000e-03
-6.71123000 2.64034000e-03
-6.68123000 2.65361000e-03
-6.65123000 2.66699000e-03
-6.62123000 2.68048000e-03
-6.59123000 2.69407000e-03
-6.56123000 2.70777000e-03
-6.53123000 2.72158000e-03
-6.50123000 2.73550000e-03
-6.47123000 2.74954000e-03
-6.44123000 2.76370000e-03
-6.38195000 2.79204000e-03
-6.35195000 2.80656000e-03
-6.32195000 2.82121000e-03
-6.29195000 2.83599000e-03
-6.26195000 2.85091000e-03
-6.23195000 2.86596000e-03
-6.20195000 2.88115000e-03
-6.17195000 2.89648000e-03
-6.14195000 2.91196000e-03
-6.11195000 2.92759000e-03
-6.08195000 2.94338000e-03
-6.05195000 2.95933000e-03
-6.02195000 2.97545000e-03
-5.99195000 2.99175000e-03
-5.96195000 3.00825000e-03
-5.93195000 3.02495000e-03
-5.90195000 3.04188000e-03
-5.87195000 3.05908000e-03
-5.84195000 3.07661000e-03
-5.81195000 3.09455000e-03
-5.78195000 3.11309000e-03
-5.75195000 3.13253000e-03
-5.72195000 3.15357000e-03
-5.69195000 3.17775000e-03
-5.66195000 3.20822000e-03
-5.63195000 3.24519000e-03
-5.60195000 3.26629000e-03
-5.57195000 3.27294000e-03
-5.54195000 3.28945000e-03
-5.48268000 3.31416000e-03
-5.45268000 3.32416000e-03
-5.42268000 3.33886000e-03
-5.39268000 3.35605000e-03
-5.36268000 3.37446000e-03
-5.33268000 3.39370000e-03
-5.30268000 3.41357000e-03
-5.27268000 3.43391000e-03
-5.24268000 3.45465000e-03
-5.21268000 3.47575000e-03
-5.18268000 3.49717000e-03
-5.15268000 3.51893000e-03
-5.12268000 3.54100000e-03
-5.09268000 3.56339000e-03
-5.06268000 3.58611000e-03
-5.03268000 3.60916000e-03
-5.00268000 3.63254000e-03
-4.97268000 3.65627000e-03
-4.94268000 3.68037000e-03
-4.91268000 3.70483000e-03
-4.88268000 3.72968000e-03
-4.85268000 3.75492000e-03
-4.82268000 3.78059000e-03
-4.79268000 3.80670000e-03
-4.76268000 3.83327000e-03
-4.73268000 3.86033000e-03
-4.70268000 3.88791000e-03
-4.67268000 3.91604000e-03
-4.64268000 3.94477000e-03
-4.58340000 4.00346000e-03
-4.55340000 4.03427000e-03
-4.52340000 4.06592000e-03
-4.49340000 4.09851000e-03
-4.46340000 4.13217000e-03
-4.43340000 4.16704000e-03
-4.40340000 4.20332000e-03
-4.37340000 4.24127000e-03
-4.34340000 4.28124000e-03
-4.31340000 4.32369000e-03
-4.28340000 4.36928000e-03
-4.25340000 4.41894000e-03
-4.22340000 4.47408000e-03
-4.19340000 4.53688000e-03
-4.16340000 4.61088000e-03
-4.13340000 4.70217000e-03
-4.10340000 4.82195000e-03
-4.07340000 4.99247000e-03
-4.04340000 5.26154000e-03
-4.01340000 5.73536000e-03
-3.98340000 6.58319000e-03
-3.95340000 7.48899000e-03
-3.92340000 7.55640000e-03
-3.89340000 7.57700000e-03
-3.86340000 7.06923000e-03
-3.83340000 6.32045000e-03
-3.80340000 5.95166000e-03
-3.77340000 5.86297000e-03
-3.74340000 5.96115000e-03
-3.68412000 6.81753000e-03
-3.65412000 7.73552000e-03
-3.62412000 8.74825000e-03
-3.59412000 1.00931000e-02
-3.56412000 1.07086000e-02
-3.53412000 1.12905000e-02
-3.50412000 1.34131000e-02
-3.47412000 1.34635000e-02
-3.44412000 1.04311000e-02
-3.41412000 8.29778000e-03
-3.38412000 7.23464000e-03
-3.35412000 6.70076000e-03
-3.32412000 6.42434000e-03
-3.29412000 6.28929000e-03
-3.26412000 6.23724000e-03
-3.23412000 6.20093000e-03
-3.20412000 6.17417000e-03
-3.17412000 6.18540000e-03
-3.14412000 6.23383000e-03
-3.11412000 6.32387000e-03
-3.08412000 6.47869000e-03
-3.05412000 6.75884000e-03
-3.02412000 7.27317000e-03
-2.99412000 7.84882000e-03
-2.96412000 7.62738000e-03
-2.93412000 7.11804000e-03
-2.90412000 6.85416000e-03
-2.87412000 6.75375000e-03
-2.84412000 6.73098000e-03
-2.78484000 6.78282000e-03
-2.75484000 6.83259000e-03
-2.72484000 6.89112000e-03
-2.69484000 6.95602000e-03
-2.66484000 7.02592000e-03
-2.63484000 7.09997000e-03
-2.60484000 7.17766000e-03
-2.57484000 7.25868000e-03
-2.54484000 7.34283000e-03
-2.51484000 7.42999000e-03
-2.48484000 7.52010000e-03
-2.45484000 7.61315000e-03
-2.42484000 7.70915000e-03
-2.39484000 7.80813000e-03
-2.36484000 7.91016000e-03
-2.33484000 8.01530000e-03
-2.30484000 8.12366000e-03
-2.27484000 8.23532000e-03
-2.24484000 8.35041000e-03
-2.21484000 8.46905000e-03
-2.18484000 8.59140000e-03
-2.15484000 8.71761000e-03
-2.12484000 8.84787000e-03
-2.09484000 8.98237000e-03
-2.06484000 9.12133000e-03
-2.03484000 9.26502000e-03
-2.00484000 9.41372000e-03
-1.97484000 9.56777000e-03
-1.94484000 9.72758000e-03
-1.88556000 1.00624000e-02
-1.85556000 1.02429000e-02
-1.82556000 1.04322000e-02
-1.79556000 1.06321000e-02
-1.76556000 1.08453000e-02
-1.73556000 1.10759000e-02
-1.70556000 1.13320000e-02
-1.67556000 1.16288000e-02
-1.64556000 1.19991000e-02
-1.61556000 1.25170000e-02
-1.58556000 1.33275000e-02
-1.55556000 1.43610000e-02
-1.52556000 1.44870000e-02
-1.49556000 1.39669000e-02
-1.46556000 1.37600000e-02
-1.43556000 1.38222000e-02
-1.40556000 1.40300000e-02
-1.37556000 1.43364000e-02
-1.34556000 1.47467000e-02
-1.31556000 1.53189000e-02
-1.28556000 1.61100000e-02
-1.25556000 1.66727000e-02
-1.22556000 1.66256000e-02
-1.19556000 1.66607000e-02
-1.16556000 1.69077000e-02
-1.13556000 1.72888000e-02
-1.10556000 1.77658000e-02
-1.07556000 1.82603000e-02
-1.04556000 1.86992000e-02
-0.98628600 1.97078000e-02
-0.95628600 2.03023000e-02
-0.92628600 2.09454000e-02
-0.89628600 2.16393000e-02
-0.86628600 2.23909000e-02
-0.83628600 2.32137000e-02
-0.80628600 2.41343000e-02
-0.77628600 2.52082000e-02
-0.74628600 2.65554000e-02
-0.71628600 2.83317000e-02
-0.68628600 2.99672000e-02
-0.65628600 3.04943000e-02
-0.62628600 3.11393000e-02
-0.59628600 3.22669000e-02
-0.56628600 3.33363000e-02
-0.53628600 3.44298000e-02
-0.50628600 3.57910000e-02
-0.47628600 3.73829000e-02
-0.44628600 3.91706000e-02
-0.41628600 4.11490000e-02
-0.38628600 4.33309000e-02
-0.35628600 4.57433000e-02
-0.32628600 4.84314000e-02
-0.29628600 5.14746000e-02
-0.26628600 5.49783000e-02
-0.23628600 5.87707000e-02
-0.20628600 6.25080000e-02
-0.17628600 6.68325000e-02
-0.14628600 7.20863000e-02
-0.08700810 8.28313000e-02
-0.05700810 8.90352000e-02
-0.02700810 9.64424000e-02
0.00299194 1.05074000e-01
0.03299190 1.15080000e-01
0.06299190 1.26788000e-01
0.09299190 1.40580000e-01
0.12299200 1.56980000e-01
0.15299200 1.76675000e-01
0.18299200 2.00162000e-01
0.21299200 2.28374000e-01
0.24299200 2.63480000e-01
0.27299200 3.07101000e-01
0.30299200 3.62422000e-01
0.33299200 4.35140000e-01
0.36299200 5.33008000e-01
0.39299200 6.68293000e-01
0.42299200 8.61759000e-01
0.45299200 1.15206000e+00
0.48299200 1.61335000e+00
0.51299200 2.39887000e+00
0.54299200 3.85269000e+00
0.57299200 6.74400000e+00
0.60299200 1.19773000e+01
0.63299200 1.52740000e+01
0.66299200 1.06076000e+01
0.69299200 5.89473000e+00
0.72299200 3.43842000e+00
0.75299200 2.19194000e+00
