# E(MeV)  S_GAMTGAMT(K=0) for Tl216_DDPCX
-8.18051000 2.03910000e-03
-8.15051000 2.04890000e-03
-8.12051000 2.05872000e-03
-8.09051000 2.06856000e-03
-8.06051000 2.07842000e-03
-8.03051000 2.08830000e-03
-8.00051000 2.09822000e-03
-7.97051000 2.10816000e-03
-7.94051000 2.11813000e-03
-7.91051000 2.12814000e-03
-7.88051000 2.13818000e-03
-7.85051000 2.14825000e-03
-7.82051000 2.15837000e-03
-7.79051000 2.16852000e-03
-7.76051000 2.17872000e-03
-7.73051000 2.18895000e-03
-7.70051000 2.19923000e-03
-7.67051000 2.20956000e-03
-7.64051000 2.21994000e-03
-7.61051000 2.23036000e-03
-7.58051000 2.24083000e-03
-7.55051000 2.25135000e-03
-7.52051000 2.26193000e-03
-7.49051000 2.27256000e-03
-7.46051000 2.28324000e-03
-7.43051000 2.29399000e-03
-7.40051000 2.30479000e-03
-7.37051000 2.31565000e-03
-7.34051000 2.32657000e-03
-7.28123000 2.34833000e-03
-7.25123000 2.35944000e-03
-7.22123000 2.37061000e-03
-7.19123000 2.38186000e-03
-7.16123000 2.39317000e-03
-7.13123000 2.40455000e-03
-7.10123000 2.41601000e-03
-7.07123000 2.42754000e-03
-7.04123000 2.43914000e-03
-7.01123000 2.45082000e-03
-6.98123000 2.46258000e-03
-6.95123000 2.47441000e-03
-6.92123000 2.48633000e-03
-6.89123000 2.49833000e-03
-6.86123000 2.51041000e-03
-6.83123000 2.52257000e-03
-6.80123000 2.53483000e-03
-6.77123000 2.54717000e-03
-6.74123000 2.55960000e-03
-6.71123000 2.57212000e-03
-6.68123000 2.58473000e-03
-6.65123000 2.59744000e-03
-6.62123000 2.61025000e-03
-6.59123000 2.62315000e-03
-6.56123000 2.63616000e-03
-6.53123000 2.64926000e-03
-6.50123000 2.66247000e-03
-6.47123000 2.67579000e-03
-6.44123000 2.68921000e-03
-6.38195000 2.71606000e-03
-6.35195000 2.72982000e-03
-6.32195000 2.74369000e-03
-6.29195000 2.75769000e-03
-6.26195000 2.77181000e-03
-6.23195000 2.78605000e-03
-6.20195000 2.80042000e-03
-6.17195000 2.81493000e-03
-6.14195000 2.82957000e-03
-6.11195000 2.84436000e-03
-6.08195000 2.85930000e-03
-6.05195000 2.87439000e-03
-6.02195000 2.88965000e-03
-5.99195000 2.90510000e-03
-5.96195000 2.92074000e-03
-5.93195000 2.93660000e-03
-5.90195000 2.95272000e-03
-5.87195000 2.96915000e-03
-5.84195000 2.98598000e-03
-5.81195000 3.00337000e-03
-5.78195000 3.02158000e-03
-5.75195000 3.04115000e-03
-5.72195000 3.06321000e-03
-5.69195000 3.09031000e-03
-5.66195000 3.12792000e-03
-5.63195000 3.17908000e-03
-5.60195000 3.20524000e-03
-5.57195000 3.18951000e-03
-5.54195000 3.18169000e-03
-5.48268000 3.19768000e-03
-5.45268000 3.21209000e-03
-5.42268000 3.22814000e-03
-5.39268000 3.24521000e-03
-5.36268000 3.26297000e-03
-5.33268000 3.28125000e-03
-5.30268000 3.29994000e-03
-5.27268000 3.31898000e-03
-5.24268000 3.33835000e-03
-5.21268000 3.35801000e-03
-5.18268000 3.37796000e-03
-5.15268000 3.39820000e-03
-5.12268000 3.41872000e-03
-5.09268000 3.43953000e-03
-5.06268000 3.46062000e-03
-5.03268000 3.48200000e-03
-5.00268000 3.50369000e-03
-4.97268000 3.52568000e-03
-4.94268000 3.54799000e-03
-4.91268000 3.57063000e-03
-4.88268000 3.59360000e-03
-4.85268000 3.61693000e-03
-4.82268000 3.64063000e-03
-4.79268000 3.66471000e-03
-4.76268000 3.68920000e-03
-4.73268000 3.71410000e-03
-4.70268000 3.73946000e-03
-4.67268000 3.76530000e-03
-4.64268000 3.79164000e-03
-4.58340000 3.84534000e-03
-4.55340000 3.87345000e-03
-4.52340000 3.90227000e-03
-4.49340000 3.93186000e-03
-4.46340000 3.96234000e-03
-4.43340000 3.99381000e-03
-4.40340000 4.02642000e-03
-4.37340000 4.06039000e-03
-4.34340000 4.09596000e-03
-4.31340000 4.13350000e-03
-4.28340000 4.17351000e-03
-4.25340000 4.21673000e-03
-4.22340000 4.26426000e-03
-4.19340000 4.31785000e-03
-4.16340000 4.38039000e-03
-4.13340000 4.45699000e-03
-4.10340000 4.55733000e-03
-4.07340000 4.70136000e-03
-4.04340000 4.93336000e-03
-4.01340000 5.35157000e-03
-3.98340000 6.07134000e-03
-3.95340000 6.55010000e-03
-3.92340000 6.02907000e-03
-3.89340000 5.51554000e-03
-3.86340000 5.30472000e-03
-3.83340000 5.27246000e-03
-3.80340000 5.35191000e-03
-3.77340000 5.53522000e-03
-3.74340000 5.86348000e-03
-3.68412000 7.52631000e-03
-3.65412000 9.25244000e-03
-3.62412000 1.00782000e-02
-3.59412000 9.91664000e-03
-3.56412000 1.12685000e-02
-3.53412000 1.41961000e-02
-3.50412000 1.39380000e-02
-3.47412000 1.04647000e-02
-3.44412000 8.17538000e-03
-3.41412000 7.04095000e-03
-3.38412000 6.46649000e-03
-3.35412000 6.16213000e-03
-3.32412000 6.00072000e-03
-3.29412000 5.92405000e-03
-3.26412000 5.90509000e-03
-3.23412000 5.93341000e-03
-3.20412000 6.01090000e-03
-3.17412000 6.15438000e-03
-3.14412000 6.40813000e-03
-3.11412000 6.87838000e-03
-3.08412000 7.79937000e-03
-3.05412000 9.34181000e-03
-3.02412000 9.91397000e-03
-2.99412000 8.51066000e-03
-2.96412000 7.38172000e-03
-2.93412000 6.83218000e-03
-2.90412000 6.57576000e-03
-2.87412000 6.45746000e-03
-2.84412000 6.40930000e-03
-2.78484000 6.41381000e-03
-2.75484000 6.44300000e-03
-2.72484000 6.48278000e-03
-2.69484000 6.53033000e-03
-2.66484000 6.58386000e-03
-2.63484000 6.64224000e-03
-2.60484000 6.70469000e-03
-2.57484000 6.77073000e-03
-2.54484000 6.83999000e-03
-2.51484000 6.91224000e-03
-2.48484000 6.98733000e-03
-2.45484000 7.06515000e-03
-2.42484000 7.14566000e-03
-2.39484000 7.22882000e-03
-2.36484000 7.31464000e-03
-2.33484000 7.40314000e-03
-2.30484000 7.49435000e-03
-2.27484000 7.58834000e-03
-2.24484000 7.68517000e-03
-2.21484000 7.78491000e-03
-2.18484000 7.88767000e-03
-2.15484000 7.99354000e-03
-2.12484000 8.10265000e-03
-2.09484000 8.21512000e-03
-2.06484000 8.33110000e-03
-2.03484000 8.45076000e-03
-2.00484000 8.57426000e-03
-1.97484000 8.70181000e-03
-1.94484000 8.83364000e-03
-1.88556000 9.10772000e-03
-1.85556000 9.25395000e-03
-1.82556000 9.40576000e-03
-1.79556000 9.56365000e-03
-1.76556000 9.72827000e-03
-1.73556000 9.90043000e-03
-1.70556000 1.00813000e-02
-1.67556000 1.02723000e-02
-1.64556000 1.04760000e-02
-1.61556000 1.06959000e-02
-1.58556000 1.09382000e-02
-1.55556000 1.12137000e-02
-1.52556000 1.15435000e-02
-1.49556000 1.19719000e-02
-1.46556000 1.25986000e-02
-1.43556000 1.36352000e-02
-1.40556000 1.51761000e-02
-1.37556000 1.57041000e-02
-1.34556000 1.47112000e-02
-1.31556000 1.40613000e-02
-1.28556000 1.38991000e-02
-1.25556000 1.39956000e-02
-1.22556000 1.42417000e-02
-1.19556000 1.46099000e-02
-1.16556000 1.51304000e-02
-1.13556000 1.59154000e-02
-1.10556000 1.71883000e-02
-1.07556000 1.87105000e-02
-1.04556000 1.86787000e-02
-0.98628600 1.75921000e-02
-0.95628600 1.76847000e-02
-0.92628600 1.79772000e-02
-0.89628600 1.83833000e-02
-0.86628600 1.88681000e-02
-0.83628600 1.94195000e-02
-0.80628600 2.00383000e-02
-0.77628600 2.07369000e-02
-0.74628600 2.15447000e-02
-0.71628600 2.25264000e-02
-0.68628600 2.38285000e-02
-0.65628600 2.57617000e-02
-0.62628600 2.84749000e-02
-0.59628600 2.97638000e-02
-0.56628600 2.88332000e-02
-0.53628600 2.84326000e-02
-0.50628600 2.87904000e-02
-0.47628600 2.95650000e-02
-0.44628600 3.05841000e-02
-0.41628600 3.17778000e-02
-0.38628600 3.31210000e-02
-0.35628600 3.46090000e-02
-0.32628600 3.62493000e-02
-0.29628600 3.80594000e-02
-0.26628600 4.00699000e-02
-0.23628600 4.23347000e-02
-0.20628600 4.49581000e-02
-0.17628600 4.81528000e-02
-0.14628600 5.21760000e-02
-0.08700810 5.83984000e-02
-0.05700810 6.08147000e-02
-0.02700810 6.41187000e-02
0.00299194 6.82606000e-02
0.03299190 7.31315000e-02
0.06299190 7.87340000e-02
0.09299190 8.51443000e-02
0.12299200 9.24926000e-02
0.15299200 1.00967000e-01
0.18299200 1.10840000e-01
0.21299200 1.22520000e-01
0.24299200 1.36468000e-01
0.27299200 1.52172000e-01
0.30299200 1.69492000e-01
0.33299200 1.90626000e-01
0.36299200 2.16858000e-01
0.39299200 2.49474000e-01
0.42299200 2.90456000e-01
0.45299200 3.42801000e-01
0.48299200 4.11045000e-01
0.51299200 5.01992000e-01
0.54299200 6.26325000e-01
0.57299200 8.03305000e-01
0.60299200 1.06696000e+00
0.63299200 1.48161000e+00
0.66299200 2.17974000e+00
0.69299200 3.45550000e+00
0.72299200 5.97375000e+00
0.75299200 1.07160000e+01
