# E(MeV)  S_GAMTGAMT(Total=K0+2*K1) for Tl220_DDPCX
-9.09303000 6.53039000e-03
-9.06303000 6.59480000e-03
-9.03303000 6.64362000e-03
-9.00303000 6.68481000e-03
-8.97303000 6.72241000e-03
-8.94303000 6.75823000e-03
-8.91303000 6.79308000e-03
-8.88303000 6.82741000e-03
-8.85303000 6.86143000e-03
-8.82303000 6.89529000e-03
-8.79303000 6.92907000e-03
-8.76303000 6.96283000e-03
-8.73303000 6.99662000e-03
-8.70303000 7.03045000e-03
-8.67303000 7.06434000e-03
-8.64303000 7.09833000e-03
-8.61303000 7.13242000e-03
-8.58303000 7.16661000e-03
-8.55303000 7.20093000e-03
-8.52303000 7.23537000e-03
-8.49303000 7.26997000e-03
-8.46303000 7.30469000e-03
-8.43303000 7.33958000e-03
-8.40303000 7.37462000e-03
-8.37303000 7.40981000e-03
-8.34303000 7.44520000e-03
-8.31303000 7.48076000e-03
-8.28303000 7.51649000e-03
-8.25303000 7.55241000e-03
-8.22303000 7.58852000e-03
-8.19303000 7.62482000e-03
-8.16303000 7.66134000e-03
-8.13303000 7.69807000e-03
-8.10250000 7.73565000e-03
-8.07250000 7.77280000e-03
-8.04250000 7.81017000e-03
-8.01250000 7.84778000e-03
-7.98250000 7.88562000e-03
-7.95250000 7.92368000e-03
-7.92250000 7.96199000e-03
-7.89250000 8.00056000e-03
-7.86250000 8.03937000e-03
-7.83250000 8.07844000e-03
-7.80250000 8.11776000e-03
-7.77250000 8.15736000e-03
-7.74250000 8.19723000e-03
-7.71250000 8.23736000e-03
-7.68250000 8.27779000e-03
-7.65250000 8.31850000e-03
-7.62250000 8.35951000e-03
-7.59250000 8.40081000e-03
-7.56250000 8.44241000e-03
-7.53250000 8.48433000e-03
-7.50250000 8.52655000e-03
-7.47250000 8.56909000e-03
-7.44250000 8.61195000e-03
-7.41250000 8.65516000e-03
-7.38250000 8.69870000e-03
-7.35250000 8.74256000e-03
-7.32250000 8.78680000e-03
-7.29250000 8.83136000e-03
-7.26250000 8.87631000e-03
-7.23250000 8.92161000e-03
-7.20250000 8.96728000e-03
-7.17250000 9.01334000e-03
-7.14250000 9.05979000e-03
-7.11197000 9.10747000e-03
-7.08197000 9.15470000e-03
-7.05197000 9.20235000e-03
-7.02197000 9.25043000e-03
-6.99197000 9.29893000e-03
-6.96197000 9.34785000e-03
-6.93197000 9.39722000e-03
-6.90197000 9.44704000e-03
-6.87197000 9.49731000e-03
-6.84197000 9.54807000e-03
-6.81197000 9.59928000e-03
-6.78197000 9.65101000e-03
-6.75197000 9.70323000e-03
-6.72197000 9.75600000e-03
-6.69197000 9.80930000e-03
-6.66197000 9.86319000e-03
-6.63197000 9.91771000e-03
-6.60197000 9.97295000e-03
-6.57197000 1.00290600e-02
-6.54197000 1.00863000e-02
-6.51197000 1.01453600e-02
-6.48197000 1.02075800e-02
-6.45197000 1.02734300e-02
-6.42197000 1.03333400e-02
-6.39197000 1.03858300e-02
-6.36197000 1.04422000e-02
-6.33197000 1.05005700e-02
-6.30197000 1.05580400e-02
-6.27197000 1.06175100e-02
-6.24197000 1.06789700e-02
-6.21197000 1.07417100e-02
-6.18197000 1.08051100e-02
-6.15197000 1.08681900e-02
-6.12144000 1.09334800e-02
-6.09144000 1.09989500e-02
-6.06144000 1.10655300e-02
-6.03144000 1.11331100e-02
-6.00144000 1.12017100e-02
-5.97144000 1.12713000e-02
-5.94144000 1.13419100e-02
-5.91144000 1.14136100e-02
-5.88144000 1.14863900e-02
-5.85144000 1.15603600e-02
-5.82144000 1.16355500e-02
-5.79144000 1.17120700e-02
-5.76144000 1.17899800e-02
-5.73144000 1.18694000e-02
-5.70144000 1.19504700e-02
-5.67144000 1.20333200e-02
-5.64144000 1.21181700e-02
-5.61144000 1.22052000e-02
-5.58144000 1.22947600e-02
-5.55144000 1.23871700e-02
-5.52144000 1.24829600e-02
-5.49144000 1.25827100e-02
-5.46144000 1.26873300e-02
-5.43144000 1.27979400e-02
-5.40144000 1.29162500e-02
-5.37144000 1.30447000e-02
-5.34144000 1.31869900e-02
-5.31144000 1.33490500e-02
-5.28144000 1.35405800e-02
-5.25144000 1.37787400e-02
-5.22144000 1.40958300e-02
-5.19144000 1.45574400e-02
-5.16144000 1.53076600e-02
-5.13091000 1.67006600e-02
-5.10091000 1.91430200e-02
-5.07091000 2.12389600e-02
-5.04091000 2.02361300e-02
-5.01091000 1.90860200e-02
-4.98091000 1.78858800e-02
-4.95091000 1.66934200e-02
-4.92091000 1.61282800e-02
-4.89091000 1.60003600e-02
-4.86091000 1.61703700e-02
-4.83091000 1.66540500e-02
-4.80091000 1.75467100e-02
-4.77091000 1.86105600e-02
-4.74091000 1.94735600e-02
-4.71091000 1.99923000e-02
-4.68091000 2.07429900e-02
-4.65091000 2.17143400e-02
-4.62091000 2.43601500e-02
-4.59091000 3.01233200e-02
-4.56091000 3.68619000e-02
-4.53091000 3.71156000e-02
-4.50091000 2.96642700e-02
-4.47091000 2.37843700e-02
-4.44091000 2.08174200e-02
-4.41091000 1.93438300e-02
-4.38091000 1.85820300e-02
-4.35091000 1.81879100e-02
-4.32091000 1.80026200e-02
-4.29091000 1.79446200e-02
-4.26091000 1.79811900e-02
-4.23091000 1.81030400e-02
-4.20091000 1.83158700e-02
-4.17091000 1.86497300e-02
-4.14038000 1.91919600e-02
-4.11038000 2.01033700e-02
-4.08038000 2.17879900e-02
-4.05038000 2.47253000e-02
-4.02038000 2.73625600e-02
-3.99038000 2.73555300e-02
-3.96038000 2.47410100e-02
-3.93038000 2.22241300e-02
-3.90038000 2.09434500e-02
-3.87038000 2.03621400e-02
-3.84038000 2.01149000e-02
-3.81038000 2.00372700e-02
-3.78038000 2.00537900e-02
-3.75038000 2.01272100e-02
-3.72038000 2.02376500e-02
-3.69038000 2.03738200e-02
-3.66038000 2.05290200e-02
-3.63038000 2.06990200e-02
-3.60038000 2.08811400e-02
-3.57038000 2.10735700e-02
-3.54038000 2.12751400e-02
-3.51038000 2.14850400e-02
-3.48038000 2.17027300e-02
-3.45038000 2.19279000e-02
-3.42038000 2.21603300e-02
-3.39038000 2.23999600e-02
-3.36038000 2.26467500e-02
-3.33038000 2.29008000e-02
-3.30038000 2.31622500e-02
-3.27038000 2.34313300e-02
-3.24038000 2.37083000e-02
-3.21038000 2.39935600e-02
-3.18038000 2.42875900e-02
-3.14985000 2.45964500e-02
-3.11985000 2.49103100e-02
-3.08985000 2.52356100e-02
-3.05985000 2.55740000e-02
-3.02985000 2.59280500e-02
-2.99985000 2.63018200e-02
-2.96985000 2.67024300e-02
-2.93985000 2.71432400e-02
-2.90985000 2.76517900e-02
-2.87985000 2.82891000e-02
-2.84985000 2.91787000e-02
-2.81985000 3.03266000e-02
-2.78985000 3.08416500e-02
-2.75985000 3.07486800e-02
-2.72985000 3.10208000e-02
-2.69985000 3.18012000e-02
-2.66985000 3.31766000e-02
-2.63985000 3.46151000e-02
-2.60985000 3.51183000e-02
-2.57985000 3.61035000e-02
-2.54985000 3.69356000e-02
-2.51985000 3.60992000e-02
-2.48985000 3.54994000e-02
-2.45985000 3.56304000e-02
-2.42985000 3.63364000e-02
-2.39985000 3.75646000e-02
-2.36985000 3.84288000e-02
-2.33985000 3.82227000e-02
-2.30985000 3.81932000e-02
-2.27985000 3.85600000e-02
-2.24985000 3.90975000e-02
-2.21985000 3.97050000e-02
-2.18985000 4.04167000e-02
-2.15932000 4.11394000e-02
-2.12932000 4.18827000e-02
-2.09932000 4.27252000e-02
-2.06932000 4.36001000e-02
-2.03932000 4.44144000e-02
-2.00932000 4.52638000e-02
-1.97932000 4.61919000e-02
-1.94932000 4.71839000e-02
-1.91932000 4.82315000e-02
-1.88932000 4.93326000e-02
-1.85932000 5.04894000e-02
-1.82932000 5.17070000e-02
-1.79932000 5.29964000e-02
-1.76932000 5.43713000e-02
-1.73932000 5.57970000e-02
-1.70932000 5.72148000e-02
-1.67932000 5.87182000e-02
-1.64932000 6.03610000e-02
-1.61932000 6.21755000e-02
-1.58932000 6.41103000e-02
-1.55932000 6.58870000e-02
-1.52932000 6.76081000e-02
-1.49932000 6.95150000e-02
-1.46932000 7.16047000e-02
-1.43932000 7.38558000e-02
-1.40932000 7.62680000e-02
-1.37932000 7.88172000e-02
-1.34932000 8.14687000e-02
-1.31932000 8.42873000e-02
-1.28932000 8.73067000e-02
-1.25932000 9.05408000e-02
-1.22932000 9.40158000e-02
-1.19932000 9.77723000e-02
-1.16879000 1.01872300e-01
-1.13879000 1.06073700e-01
-1.10879000 1.10443900e-01
-1.07879000 1.15131700e-01
-1.04879000 1.20241800e-01
-1.01879000 1.25792500e-01
-0.98879000 1.31814900e-01
-0.95879000 1.38358000e-01
-0.92879000 1.45455800e-01
-0.89879000 1.53130000e-01
-0.86879000 1.61505700e-01
-0.83879000 1.70687800e-01
-0.80879000 1.80739800e-01
-0.77879000 1.91786600e-01
-0.74879000 2.03998600e-01
-0.71879000 2.17543800e-01
-0.68879000 2.32622000e-01
-0.65879000 2.49475700e-01
-0.62879000 2.68402300e-01
-0.59879000 2.89767600e-01
-0.56879000 3.14020500e-01
-0.53879000 3.41729500e-01
-0.50879000 3.73600800e-01
-0.47879000 4.10554000e-01
-0.44879000 4.53803000e-01
-0.41879000 5.04958000e-01
-0.38879000 5.66205000e-01
-0.35879000 6.40615000e-01
-0.32879000 7.32647000e-01
-0.29879000 8.49034000e-01
-0.26879000 1.00052600e+00
-0.23879000 1.20545000e+00
-0.20879000 1.49772100e+00
-0.17826000 1.95597200e+00
-0.14826000 2.71087600e+00
-0.11826000 3.95924500e+00
-0.08826010 5.14661900e+00
-0.05826010 5.47356700e+00
-0.02826010 6.51346900e+00
0.00173987 9.13927800e+00
0.03173990 1.26117670e+01
0.06173990 1.74120100e+01
0.09173990 2.71222000e+01
0.12174000 3.30684800e+01
0.15174000 2.52797000e+01
0.18174000 1.96429000e+01
0.21174000 1.84706400e+01
0.24174000 1.95310800e+01
0.27174000 2.16723600e+01
0.30174000 1.70456000e+01
0.33174000 1.12771800e+01
0.36174000 7.87777000e+00
0.39174000 5.64209000e+00
0.42174000 4.34359400e+00
0.45174000 3.59491800e+00
0.48174000 3.29865600e+00
0.51174000 3.11927000e+00
0.54174000 2.56180100e+00
0.57174000 1.91408600e+00
0.60174000 1.54689100e+00
0.63174000 1.39631800e+00
0.66174000 1.34294900e+00
0.69174000 1.23836700e+00
0.72174000 1.22469100e+00
0.75174000 1.31997900e+00
0.78174000 1.33889000e+00
