# E(MeV)  S_GAMTGAMT(K=0) for Tl220_DDPCX
-9.09303000 2.14497000e-03
-9.06303000 2.16992000e-03
-9.03303000 2.18778000e-03
-9.00303000 2.20231000e-03
-8.97303000 2.21525000e-03
-8.94303000 2.22739000e-03
-8.91303000 2.23908000e-03
-8.88303000 2.25051000e-03
-8.85303000 2.26179000e-03
-8.82303000 2.27299000e-03
-8.79303000 2.28413000e-03
-8.76303000 2.29525000e-03
-8.73303000 2.30636000e-03
-8.70303000 2.31747000e-03
-8.67303000 2.32860000e-03
-8.64303000 2.33975000e-03
-8.61303000 2.35092000e-03
-8.58303000 2.36213000e-03
-8.55303000 2.37337000e-03
-8.52303000 2.38465000e-03
-8.49303000 2.39597000e-03
-8.46303000 2.40733000e-03
-8.43303000 2.41874000e-03
-8.40303000 2.43020000e-03
-8.37303000 2.44171000e-03
-8.34303000 2.45328000e-03
-8.31303000 2.46490000e-03
-8.28303000 2.47657000e-03
-8.25303000 2.48831000e-03
-8.22303000 2.50010000e-03
-8.19303000 2.51196000e-03
-8.16303000 2.52388000e-03
-8.13303000 2.53587000e-03
-8.10250000 2.54813000e-03
-8.07250000 2.56026000e-03
-8.04250000 2.57245000e-03
-8.01250000 2.58472000e-03
-7.98250000 2.59706000e-03
-7.95250000 2.60948000e-03
-7.92250000 2.62197000e-03
-7.89250000 2.63454000e-03
-7.86250000 2.64719000e-03
-7.83250000 2.65992000e-03
-7.80250000 2.67274000e-03
-7.77250000 2.68564000e-03
-7.74250000 2.69863000e-03
-7.71250000 2.71170000e-03
-7.68250000 2.72487000e-03
-7.65250000 2.73812000e-03
-7.62250000 2.75147000e-03
-7.59250000 2.76491000e-03
-7.56250000 2.77845000e-03
-7.53250000 2.79209000e-03
-7.50250000 2.80583000e-03
-7.47250000 2.81967000e-03
-7.44250000 2.83361000e-03
-7.41250000 2.84766000e-03
-7.38250000 2.86182000e-03
-7.35250000 2.87608000e-03
-7.32250000 2.89046000e-03
-7.29250000 2.90494000e-03
-7.26250000 2.91955000e-03
-7.23250000 2.93427000e-03
-7.20250000 2.94910000e-03
-7.17250000 2.96406000e-03
-7.14250000 2.97915000e-03
-7.11197000 2.99463000e-03
-7.08197000 3.00996000e-03
-7.05197000 3.02543000e-03
-7.02197000 3.04103000e-03
-6.99197000 3.05677000e-03
-6.96197000 3.07265000e-03
-6.93197000 3.08866000e-03
-6.90197000 3.10482000e-03
-6.87197000 3.12113000e-03
-6.84197000 3.13759000e-03
-6.81197000 3.15420000e-03
-6.78197000 3.17097000e-03
-6.75197000 3.18791000e-03
-6.72197000 3.20502000e-03
-6.69197000 3.22232000e-03
-6.66197000 3.23981000e-03
-6.63197000 3.25753000e-03
-6.60197000 3.27551000e-03
-6.57197000 3.29384000e-03
-6.54197000 3.31266000e-03
-6.51197000 3.33236000e-03
-6.48197000 3.35368000e-03
-6.45197000 3.37683000e-03
-6.42197000 3.39622000e-03
-6.39197000 3.41079000e-03
-6.36197000 3.42688000e-03
-6.33197000 3.44481000e-03
-6.30197000 3.46382000e-03
-6.27197000 3.48357000e-03
-6.24197000 3.50351000e-03
-6.21197000 3.52329000e-03
-6.18197000 3.54341000e-03
-6.15197000 3.56395000e-03
-6.12144000 3.58522000e-03
-6.09144000 3.60643000e-03
-6.06144000 3.62793000e-03
-6.03144000 3.64973000e-03
-6.00144000 3.67183000e-03
-5.97144000 3.69424000e-03
-5.94144000 3.71697000e-03
-5.91144000 3.74003000e-03
-5.88144000 3.76343000e-03
-5.85144000 3.78720000e-03
-5.82144000 3.81135000e-03
-5.79144000 3.83591000e-03
-5.76144000 3.86090000e-03
-5.73144000 3.88636000e-03
-5.70144000 3.91233000e-03
-5.67144000 3.93884000e-03
-5.64144000 3.96597000e-03
-5.61144000 3.99376000e-03
-5.58144000 4.02232000e-03
-5.55144000 4.05175000e-03
-5.52144000 4.08220000e-03
-5.49144000 4.11385000e-03
-5.46144000 4.14697000e-03
-5.43144000 4.18190000e-03
-5.40144000 4.21915000e-03
-5.37144000 4.25948000e-03
-5.34144000 4.30403000e-03
-5.31144000 4.35465000e-03
-5.28144000 4.41444000e-03
-5.25144000 4.48894000e-03
-5.22144000 4.58883000e-03
-5.19144000 4.73624000e-03
-5.16144000 4.98072000e-03
-5.13091000 5.44286000e-03
-5.10091000 6.22432000e-03
-5.07091000 6.66740000e-03
-5.04091000 6.03631000e-03
-5.01091000 5.45676000e-03
-4.98091000 5.19048000e-03
-4.95091000 5.09450000e-03
-4.92091000 5.08810000e-03
-4.89091000 5.14260000e-03
-4.86091000 5.25821000e-03
-4.83091000 5.46317000e-03
-4.80091000 5.83329000e-03
-4.77091000 6.49120000e-03
-4.74091000 7.16508000e-03
-4.71091000 7.05640000e-03
-4.68091000 6.96831000e-03
-4.65091000 7.52346000e-03
-4.62091000 9.05533000e-03
-4.59091000 1.18485000e-02
-4.56091000 1.30143000e-02
-4.53091000 1.03328000e-02
-4.50091000 8.07627000e-03
-4.47091000 6.94255000e-03
-4.44091000 6.38344000e-03
-4.41091000 6.09527000e-03
-4.38091000 5.94523000e-03
-4.35091000 5.87329000e-03
-4.32091000 5.85094000e-03
-4.29091000 5.86484000e-03
-4.26091000 5.91041000e-03
-4.23091000 5.99008000e-03
-4.20091000 6.11483000e-03
-4.17091000 6.31049000e-03
-4.14038000 6.64212000e-03
-4.11038000 7.23353000e-03
-4.08038000 8.38371000e-03
-4.05038000 1.03370000e-02
-4.02038000 1.11634000e-02
-3.99038000 9.39123000e-03
-3.96038000 7.90385000e-03
-3.93038000 7.16819000e-03
-3.90038000 6.81615000e-03
-3.87038000 6.64398000e-03
-3.84038000 6.56234000e-03
-3.81038000 6.53037000e-03
-3.78038000 6.52787000e-03
-3.75038000 6.54409000e-03
-3.72038000 6.57295000e-03
-3.69038000 6.61080000e-03
-3.66038000 6.65538000e-03
-3.63038000 6.70522000e-03
-3.60038000 6.75934000e-03
-3.57038000 6.81707000e-03
-3.54038000 6.87796000e-03
-3.51038000 6.94170000e-03
-3.48038000 7.00805000e-03
-3.45038000 7.07688000e-03
-3.42038000 7.14807000e-03
-3.39038000 7.22158000e-03
-3.36038000 7.29737000e-03
-3.33038000 7.37544000e-03
-3.30038000 7.45581000e-03
-3.27038000 7.53853000e-03
-3.24038000 7.62364000e-03
-3.21038000 7.71124000e-03
-3.18038000 7.80143000e-03
-3.14985000 7.89599000e-03
-3.11985000 7.99183000e-03
-3.08985000 8.09075000e-03
-3.05985000 8.19302000e-03
-3.02985000 8.29899000e-03
-2.99985000 8.40912000e-03
-2.96985000 8.52405000e-03
-2.93985000 8.64470000e-03
-2.90985000 8.77243000e-03
-2.87985000 8.90938000e-03
-2.84985000 9.05910000e-03
-2.81985000 9.22780000e-03
-2.78985000 9.42725000e-03
-2.75985000 9.68148000e-03
-2.72985000 1.00438000e-02
-2.69985000 1.06336000e-02
-2.66985000 1.16168000e-02
-2.63985000 1.24309000e-02
-2.60985000 1.19065000e-02
-2.57985000 1.12627000e-02
-2.54985000 1.10240000e-02
-2.51985000 1.10344000e-02
-2.48985000 1.12040000e-02
-2.45985000 1.15396000e-02
-2.42985000 1.21452000e-02
-2.39985000 1.31212000e-02
-2.36985000 1.36466000e-02
-2.33985000 1.30401000e-02
-2.30985000 1.25524000e-02
-2.27985000 1.24032000e-02
-2.24985000 1.24321000e-02
-2.21985000 1.25502000e-02
-2.18985000 1.27199000e-02
-2.15932000 1.29316000e-02
-2.12932000 1.31787000e-02
-2.09932000 1.34742000e-02
-2.06932000 1.37733000e-02
-2.03932000 1.39750000e-02
-2.00932000 1.41746000e-02
-1.97932000 1.44185000e-02
-1.94932000 1.46935000e-02
-1.91932000 1.49901000e-02
-1.88932000 1.53044000e-02
-1.85932000 1.56354000e-02
-1.82932000 1.59828000e-02
-1.79932000 1.63474000e-02
-1.76932000 1.67305000e-02
-1.73932000 1.71342000e-02
-1.70932000 1.75622000e-02
-1.67932000 1.80218000e-02
-1.64932000 1.85280000e-02
-1.61932000 1.91105000e-02
-1.58932000 1.97667000e-02
-1.55932000 2.02784000e-02
-1.52932000 2.06607000e-02
-1.49932000 2.11258000e-02
-1.46932000 2.16737000e-02
-1.43932000 2.22786000e-02
-1.40932000 2.29294000e-02
-1.37932000 2.36230000e-02
-1.34932000 2.43595000e-02
-1.31932000 2.51409000e-02
-1.28932000 2.59707000e-02
-1.25932000 2.68536000e-02
-1.22932000 2.77972000e-02
-1.19932000 2.88141000e-02
-1.16879000 2.99449000e-02
-1.13879000 3.11353000e-02
-1.10879000 3.22899000e-02
-1.07879000 3.34799000e-02
-1.04879000 3.47914000e-02
-1.01879000 3.62223000e-02
-0.98879000 3.77701000e-02
-0.95879000 3.94402000e-02
-0.92879000 4.12430000e-02
-0.89879000 4.31924000e-02
-0.86879000 4.53065000e-02
-0.83879000 4.76032000e-02
-0.80879000 5.00812000e-02
-0.77879000 5.27628000e-02
-0.74879000 5.56986000e-02
-0.71879000 5.89212000e-02
-0.68879000 6.24658000e-02
-0.65879000 6.63755000e-02
-0.62879000 7.07029000e-02
-0.59879000 7.55116000e-02
-0.56879000 8.08785000e-02
-0.53879000 8.68975000e-02
-0.50879000 9.36848000e-02
-0.47879000 1.01386000e-01
-0.44879000 1.10185000e-01
-0.41879000 1.20322000e-01
-0.38879000 1.32115000e-01
-0.35879000 1.45997000e-01
-0.32879000 1.62587000e-01
-0.29879000 1.82798000e-01
-0.26879000 2.08080000e-01
-0.23879000 2.40902000e-01
-0.20879000 2.85885000e-01
-0.17826000 3.54032000e-01
-0.14826000 4.63896000e-01
-0.11826000 6.45185000e-01
-0.08826010 8.10159000e-01
-0.05826010 7.75827000e-01
-0.02826010 7.45469000e-01
0.00173987 8.14158000e-01
0.03173990 9.75607000e-01
0.06173990 1.24875000e+00
0.09173990 1.69840000e+00
0.12174000 2.47368000e+00
0.15174000 3.88830000e+00
0.18174000 6.27590000e+00
0.21174000 8.99910000e+00
0.24174000 1.29867000e+01
0.27174000 1.70516000e+01
0.30174000 1.33257000e+01
0.33174000 7.83550000e+00
0.36174000 4.68147000e+00
0.39174000 3.17461000e+00
0.42174000 2.37880000e+00
0.45174000 1.77492000e+00
0.48174000 1.33865000e+00
0.51174000 1.00521000e+00
0.54174000 7.80223000e-01
0.57174000 6.19374000e-01
0.60174000 5.06061000e-01
0.63174000 4.28332000e-01
0.66174000 3.76499000e-01
0.69174000 3.43975000e-01
0.72174000 3.28197000e-01
0.75174000 3.42217000e-01
0.78174000 3.86684000e-01
