# E(MeV)  S_GAMTGAMT(K=1) for Tl220_DDPCX
-9.09303000 2.19271000e-03
-9.06303000 2.21244000e-03
-9.03303000 2.22792000e-03
-9.00303000 2.24125000e-03
-8.97303000 2.25358000e-03
-8.94303000 2.26542000e-03
-8.91303000 2.27700000e-03
-8.88303000 2.28845000e-03
-8.85303000 2.29982000e-03
-8.82303000 2.31115000e-03
-8.79303000 2.32247000e-03
-8.76303000 2.33379000e-03
-8.73303000 2.34513000e-03
-8.70303000 2.35649000e-03
-8.67303000 2.36787000e-03
-8.64303000 2.37929000e-03
-8.61303000 2.39075000e-03
-8.58303000 2.40224000e-03
-8.55303000 2.41378000e-03
-8.52303000 2.42536000e-03
-8.49303000 2.43700000e-03
-8.46303000 2.44868000e-03
-8.43303000 2.46042000e-03
-8.40303000 2.47221000e-03
-8.37303000 2.48405000e-03
-8.34303000 2.49596000e-03
-8.31303000 2.50793000e-03
-8.28303000 2.51996000e-03
-8.25303000 2.53205000e-03
-8.22303000 2.54421000e-03
-8.19303000 2.55643000e-03
-8.16303000 2.56873000e-03
-8.13303000 2.58110000e-03
-8.10250000 2.59376000e-03
-8.07250000 2.60627000e-03
-8.04250000 2.61886000e-03
-8.01250000 2.63153000e-03
-7.98250000 2.64428000e-03
-7.95250000 2.65710000e-03
-7.92250000 2.67001000e-03
-7.89250000 2.68301000e-03
-7.86250000 2.69609000e-03
-7.83250000 2.70926000e-03
-7.80250000 2.72251000e-03
-7.77250000 2.73586000e-03
-7.74250000 2.74930000e-03
-7.71250000 2.76283000e-03
-7.68250000 2.77646000e-03
-7.65250000 2.79019000e-03
-7.62250000 2.80402000e-03
-7.59250000 2.81795000e-03
-7.56250000 2.83198000e-03
-7.53250000 2.84612000e-03
-7.50250000 2.86036000e-03
-7.47250000 2.87471000e-03
-7.44250000 2.88917000e-03
-7.41250000 2.90375000e-03
-7.38250000 2.91844000e-03
-7.35250000 2.93324000e-03
-7.32250000 2.94817000e-03
-7.29250000 2.96321000e-03
-7.26250000 2.97838000e-03
-7.23250000 2.99367000e-03
-7.20250000 3.00909000e-03
-7.17250000 3.02464000e-03
-7.14250000 3.04032000e-03
-7.11197000 3.05642000e-03
-7.08197000 3.07237000e-03
-7.05197000 3.08846000e-03
-7.02197000 3.10470000e-03
-6.99197000 3.12108000e-03
-6.96197000 3.13760000e-03
-6.93197000 3.15428000e-03
-6.90197000 3.17111000e-03
-6.87197000 3.18809000e-03
-6.84197000 3.20524000e-03
-6.81197000 3.22254000e-03
-6.78197000 3.24002000e-03
-6.75197000 3.25766000e-03
-6.72197000 3.27549000e-03
-6.69197000 3.29349000e-03
-6.66197000 3.31169000e-03
-6.63197000 3.33009000e-03
-6.60197000 3.34872000e-03
-6.57197000 3.36761000e-03
-6.54197000 3.38682000e-03
-6.51197000 3.40650000e-03
-6.48197000 3.42695000e-03
-6.45197000 3.44830000e-03
-6.42197000 3.46856000e-03
-6.39197000 3.48752000e-03
-6.36197000 3.50766000e-03
-6.33197000 3.52788000e-03
-6.30197000 3.54711000e-03
-6.27197000 3.56697000e-03
-6.24197000 3.58773000e-03
-6.21197000 3.60921000e-03
-6.18197000 3.63085000e-03
-6.15197000 3.65212000e-03
-6.12144000 3.67413000e-03
-6.09144000 3.69626000e-03
-6.06144000 3.71880000e-03
-6.03144000 3.74169000e-03
-6.00144000 3.76494000e-03
-5.97144000 3.78853000e-03
-5.94144000 3.81247000e-03
-5.91144000 3.83679000e-03
-5.88144000 3.86148000e-03
-5.85144000 3.88658000e-03
-5.82144000 3.91210000e-03
-5.79144000 3.93808000e-03
-5.76144000 3.96454000e-03
-5.73144000 3.99152000e-03
-5.70144000 4.01907000e-03
-5.67144000 4.04724000e-03
-5.64144000 4.07610000e-03
-5.61144000 4.10572000e-03
-5.58144000 4.13622000e-03
-5.55144000 4.16771000e-03
-5.52144000 4.20038000e-03
-5.49144000 4.23443000e-03
-5.46144000 4.27018000e-03
-5.43144000 4.30802000e-03
-5.40144000 4.34855000e-03
-5.37144000 4.39261000e-03
-5.34144000 4.44148000e-03
-5.31144000 4.49720000e-03
-5.28144000 4.56307000e-03
-5.25144000 4.64490000e-03
-5.22144000 4.75350000e-03
-5.19144000 4.91060000e-03
-5.16144000 5.16347000e-03
-5.13091000 5.62890000e-03
-5.10091000 6.45935000e-03
-5.07091000 7.28578000e-03
-5.04091000 7.09991000e-03
-5.01091000 6.81463000e-03
-4.98091000 6.34770000e-03
-4.95091000 5.79946000e-03
-4.92091000 5.52009000e-03
-4.89091000 5.42888000e-03
-4.86091000 5.45608000e-03
-4.83091000 5.59544000e-03
-4.80091000 5.85671000e-03
-4.77091000 6.05968000e-03
-4.74091000 6.15424000e-03
-4.71091000 6.46795000e-03
-4.68091000 6.88734000e-03
-4.65091000 7.09544000e-03
-4.62091000 7.65241000e-03
-4.59091000 9.13741000e-03
-4.56091000 1.19238000e-02
-4.53091000 1.33914000e-02
-4.50091000 1.07940000e-02
-4.47091000 8.42091000e-03
-4.44091000 7.21699000e-03
-4.41091000 6.62428000e-03
-4.38091000 6.31840000e-03
-4.35091000 6.15731000e-03
-4.32091000 6.07584000e-03
-4.29091000 6.03989000e-03
-4.26091000 6.03539000e-03
-4.23091000 6.05648000e-03
-4.20091000 6.10052000e-03
-4.17091000 6.16962000e-03
-4.14038000 6.27492000e-03
-4.11038000 6.43492000e-03
-4.08038000 6.70214000e-03
-4.05038000 7.19415000e-03
-4.02038000 8.09958000e-03
-3.99038000 8.98215000e-03
-3.96038000 8.41858000e-03
-3.93038000 7.52797000e-03
-3.90038000 7.06365000e-03
-3.87038000 6.85908000e-03
-3.84038000 6.77628000e-03
-3.81038000 6.75345000e-03
-3.78038000 6.76296000e-03
-3.75038000 6.79156000e-03
-3.72038000 6.83235000e-03
-3.69038000 6.88151000e-03
-3.66038000 6.93682000e-03
-3.63038000 6.99690000e-03
-3.60038000 7.06090000e-03
-3.57038000 7.12825000e-03
-3.54038000 7.19859000e-03
-3.51038000 7.27167000e-03
-3.48038000 7.34734000e-03
-3.45038000 7.42551000e-03
-3.42038000 7.50613000e-03
-3.39038000 7.58919000e-03
-3.36038000 7.67469000e-03
-3.33038000 7.76268000e-03
-3.30038000 7.85322000e-03
-3.27038000 7.94640000e-03
-3.24038000 8.04233000e-03
-3.21038000 8.14116000e-03
-3.18038000 8.24308000e-03
-3.14985000 8.35023000e-03
-3.11985000 8.45924000e-03
-3.08985000 8.57243000e-03
-3.05985000 8.69049000e-03
-3.02985000 8.81453000e-03
-2.99985000 8.94635000e-03
-2.96985000 9.08919000e-03
-2.93985000 9.24927000e-03
-2.90985000 9.43968000e-03
-2.87985000 9.68986000e-03
-2.84985000 1.00598000e-02
-2.81985000 1.05494000e-02
-2.78985000 1.07072000e-02
-2.75985000 1.05336000e-02
-2.72985000 1.04885000e-02
-2.69985000 1.05838000e-02
-2.66985000 1.07799000e-02
-2.63985000 1.10921000e-02
-2.60985000 1.16059000e-02
-2.57985000 1.24204000e-02
-2.54985000 1.29558000e-02
-2.51985000 1.25324000e-02
-2.48985000 1.21477000e-02
-2.45985000 1.20454000e-02
-2.42985000 1.20956000e-02
-2.39985000 1.22217000e-02
-2.36985000 1.23911000e-02
-2.33985000 1.25913000e-02
-2.30985000 1.28204000e-02
-2.27985000 1.30784000e-02
-2.24985000 1.33327000e-02
-2.21985000 1.35774000e-02
-2.18985000 1.38484000e-02
-2.15932000 1.41039000e-02
-2.12932000 1.43520000e-02
-2.09932000 1.46255000e-02
-2.06932000 1.49134000e-02
-2.03932000 1.52197000e-02
-2.00932000 1.55446000e-02
-1.97932000 1.58867000e-02
-1.94932000 1.62452000e-02
-1.91932000 1.66207000e-02
-1.88932000 1.70141000e-02
-1.85932000 1.74270000e-02
-1.82932000 1.78621000e-02
-1.79932000 1.83245000e-02
-1.76932000 1.88204000e-02
-1.73932000 1.93314000e-02
-1.70932000 1.98263000e-02
-1.67932000 2.03482000e-02
-1.64932000 2.09165000e-02
-1.61932000 2.15325000e-02
-1.58932000 2.21718000e-02
-1.55932000 2.28043000e-02
-1.52932000 2.34737000e-02
-1.49932000 2.41946000e-02
-1.46932000 2.49655000e-02
-1.43932000 2.57886000e-02
-1.40932000 2.66693000e-02
-1.37932000 2.75971000e-02
-1.34932000 2.85546000e-02
-1.31932000 2.95732000e-02
-1.28932000 3.06680000e-02
-1.25932000 3.18436000e-02
-1.22932000 3.31093000e-02
-1.19932000 3.44791000e-02
-1.16879000 3.59637000e-02
-1.13879000 3.74692000e-02
-1.10879000 3.90770000e-02
-1.07879000 4.08259000e-02
-1.04879000 4.27252000e-02
-1.01879000 4.47851000e-02
-0.98879000 4.70224000e-02
-0.95879000 4.94589000e-02
-0.92879000 5.21064000e-02
-0.89879000 5.49688000e-02
-0.86879000 5.80996000e-02
-0.83879000 6.15423000e-02
-0.80879000 6.53293000e-02
-0.77879000 6.95119000e-02
-0.74879000 7.41500000e-02
-0.71879000 7.93113000e-02
-0.68879000 8.50781000e-02
-0.65879000 9.15501000e-02
-0.62879000 9.88497000e-02
-0.59879000 1.07128000e-01
-0.56879000 1.16571000e-01
-0.53879000 1.27416000e-01
-0.50879000 1.39958000e-01
-0.47879000 1.54584000e-01
-0.44879000 1.71809000e-01
-0.41879000 1.92318000e-01
-0.38879000 2.17045000e-01
-0.35879000 2.47309000e-01
-0.32879000 2.85030000e-01
-0.29879000 3.33118000e-01
-0.26879000 3.96223000e-01
-0.23879000 4.82274000e-01
-0.20879000 6.05918000e-01
-0.17826000 8.00970000e-01
-0.14826000 1.12349000e+00
-0.11826000 1.65703000e+00
-0.08826010 2.16823000e+00
-0.05826010 2.34887000e+00
-0.02826010 2.88400000e+00
0.00173987 4.16256000e+00
0.03173990 5.81808000e+00
0.06173990 8.08163000e+00
0.09173990 1.27119000e+01
0.12174000 1.52974000e+01
0.15174000 1.06957000e+01
0.18174000 6.68350000e+00
0.21174000 4.73577000e+00
0.24174000 3.27219000e+00
0.27174000 2.31038000e+00
0.30174000 1.85995000e+00
0.33174000 1.72084000e+00
0.36174000 1.59815000e+00
0.39174000 1.23374000e+00
0.42174000 9.82397000e-01
0.45174000 9.09999000e-01
0.48174000 9.80003000e-01
0.51174000 1.05703000e+00
0.54174000 8.90789000e-01
0.57174000 6.47356000e-01
0.60174000 5.20415000e-01
0.63174000 4.83993000e-01
0.66174000 4.83225000e-01
0.69174000 4.47196000e-01
0.72174000 4.48247000e-01
0.75174000 4.88881000e-01
0.78174000 4.76103000e-01
