# E(MeV)  S_GAMTGAMT(K=0) for Tm200_DDPCX
-15.07640000 1.66433000e-03
-15.04640000 1.68498000e-03
-15.01640000 1.70155000e-03
-14.98640000 1.71556000e-03
-14.95640000 1.72786000e-03
-14.92640000 1.73900000e-03
-14.89640000 1.74928000e-03
-14.86640000 1.75894000e-03
-14.83640000 1.76812000e-03
-14.80640000 1.77690000e-03
-14.77640000 1.78536000e-03
-14.74640000 1.79353000e-03
-14.71640000 1.80143000e-03
-14.68640000 1.80905000e-03
-14.65640000 1.81637000e-03
-14.62640000 1.82331000e-03
-14.59640000 1.82971000e-03
-14.56640000 1.83529000e-03
-14.53640000 1.83949000e-03
-14.50640000 1.84110000e-03
-14.47640000 1.83739000e-03
-14.44640000 1.82254000e-03
-14.41640000 1.79346000e-03
-14.38640000 1.79029000e-03
-14.35640000 1.82756000e-03
-14.32640000 1.85175000e-03
-14.29640000 1.86006000e-03
-14.26640000 1.87725000e-03
-14.23640000 1.90097000e-03
-14.20640000 1.91824000e-03
-14.17640000 1.93077000e-03
-14.14640000 1.94091000e-03
-14.11640000 1.94974000e-03
-14.08640000 1.95775000e-03
-14.05640000 1.96511000e-03
-14.02640000 1.97187000e-03
-13.99640000 1.97791000e-03
-13.96640000 1.98301000e-03
-13.93640000 1.98670000e-03
-13.90640000 1.98809000e-03
-13.87640000 1.98543000e-03
-13.84640000 1.97498000e-03
-13.81640000 1.94831000e-03
-13.78640000 1.88705000e-03
-13.75640000 1.77760000e-03
-13.72640000 1.74329000e-03
-13.69640000 1.86398000e-03
-13.66640000 1.96398000e-03
-13.63640000 2.01892000e-03
-13.60640000 2.05113000e-03
-13.57640000 2.07273000e-03
-13.54640000 2.08904000e-03
-13.48750000 2.11387000e-03
-13.45750000 2.12470000e-03
-13.42750000 2.13489000e-03
-13.39750000 2.14464000e-03
-13.36750000 2.15411000e-03
-13.33750000 2.16339000e-03
-13.30750000 2.17254000e-03
-13.27750000 2.18161000e-03
-13.24750000 2.19061000e-03
-13.21750000 2.19959000e-03
-13.18750000 2.20855000e-03
-13.15750000 2.21751000e-03
-13.12750000 2.22647000e-03
-13.09750000 2.23546000e-03
-13.06750000 2.24446000e-03
-13.03750000 2.25350000e-03
-13.00750000 2.26257000e-03
-12.97750000 2.27168000e-03
-12.94750000 2.28083000e-03
-12.91750000 2.29003000e-03
-12.88750000 2.29928000e-03
-12.85750000 2.30859000e-03
-12.82750000 2.31795000e-03
-12.79750000 2.32737000e-03
-12.76750000 2.33685000e-03
-12.73750000 2.34640000e-03
-12.70750000 2.35603000e-03
-12.67750000 2.36572000e-03
-12.64750000 2.37550000e-03
-12.61750000 2.38537000e-03
-12.58750000 2.39533000e-03
-12.55750000 2.40538000e-03
-12.52750000 2.41555000e-03
-12.49750000 2.42584000e-03
-12.46750000 2.43626000e-03
-12.43750000 2.44683000e-03
-12.40750000 2.45757000e-03
-12.37750000 2.46850000e-03
-12.34750000 2.47968000e-03
-12.31750000 2.49113000e-03
-12.28750000 2.50294000e-03
-12.25750000 2.51521000e-03
-12.22750000 2.52806000e-03
-12.19750000 2.54172000e-03
-12.16750000 2.55654000e-03
-12.13750000 2.57309000e-03
-12.10750000 2.59234000e-03
-12.07750000 2.61615000e-03
-12.04750000 2.64821000e-03
-12.01750000 2.69651000e-03
-11.98750000 2.77925000e-03
-11.95750000 2.93181000e-03
-11.89870000 3.11243000e-03
-11.86870000 2.93067000e-03
-11.83870000 2.82032000e-03
-11.80870000 2.77163000e-03
-11.77870000 2.75240000e-03
-11.74870000 2.74738000e-03
-11.71870000 2.74990000e-03
-11.68870000 2.75689000e-03
-11.65870000 2.76687000e-03
-11.62870000 2.77914000e-03
-11.59870000 2.79345000e-03
-11.56870000 2.80986000e-03
-11.53870000 2.82872000e-03
-11.50870000 2.85080000e-03
-11.47870000 2.87749000e-03
-11.44870000 2.91135000e-03
-11.41870000 2.95729000e-03
-11.38870000 3.02446000e-03
-11.35870000 3.12811000e-03
-11.32870000 3.30773000e-03
-11.29870000 3.65553000e-03
-11.26870000 4.16670000e-03
-11.23870000 4.17358000e-03
-11.20870000 3.69063000e-03
-11.17870000 3.37467000e-03
-11.14870000 3.22482000e-03
-11.11870000 3.15508000e-03
-11.08870000 3.12362000e-03
-11.05870000 3.11213000e-03
-11.02870000 3.11214000e-03
-10.99870000 3.11950000e-03
-10.96870000 3.13205000e-03
-10.93870000 3.14871000e-03
-10.90870000 3.16899000e-03
-10.87870000 3.19279000e-03
-10.84870000 3.22034000e-03
-10.81870000 3.25218000e-03
-10.78870000 3.28919000e-03
-10.75870000 3.33274000e-03
-10.72870000 3.38484000e-03
-10.69870000 3.44855000e-03
-10.66870000 3.52857000e-03
-10.63870000 3.63237000e-03
-10.60870000 3.77233000e-03
-10.57870000 3.97000000e-03
-10.54870000 4.26530000e-03
-10.51870000 4.73764000e-03
-10.48870000 5.55775000e-03
-10.45870000 7.11427000e-03
-10.42870000 1.01914000e-02
-10.39870000 1.46966000e-02
-10.36870000 1.45890000e-02
-10.30980000 7.20924000e-03
-10.27980000 5.69366000e-03
-10.24980000 4.91828000e-03
-10.21980000 4.48961000e-03
-10.18980000 4.23391000e-03
-10.15980000 4.08271000e-03
-10.12980000 4.00307000e-03
-10.09980000 3.98436000e-03
-10.06980000 4.03323000e-03
-10.03980000 4.11887000e-03
-10.00980000 4.17391000e-03
-9.97980000 4.31857000e-03
-9.94980000 4.40432000e-03
-9.91980000 4.18950000e-03
-9.88980000 3.99760000e-03
-9.85980000 3.90693000e-03
-9.82980000 3.87367000e-03
-9.79980000 3.87508000e-03
-9.76980000 3.90882000e-03
-9.73980000 3.98441000e-03
-9.70980000 4.06847000e-03
-9.67980000 4.06228000e-03
-9.64980000 4.01240000e-03
-9.61980000 4.00633000e-03
-9.58980000 4.05432000e-03
-9.55980000 4.10117000e-03
-9.52980000 4.07478000e-03
-9.49980000 4.05947000e-03
-9.46980000 4.08905000e-03
-9.43980000 4.13695000e-03
-9.40980000 4.13458000e-03
-9.37980000 4.11852000e-03
-9.34980000 4.11940000e-03
-9.31980000 4.13478000e-03
-9.28980000 4.15850000e-03
-9.25980000 4.19159000e-03
-9.22980000 4.23708000e-03
-9.19980000 4.29979000e-03
-9.16980000 4.36643000e-03
-9.13980000 4.40110000e-03
-9.10980000 4.44073000e-03
-9.07980000 4.50982000e-03
-9.04980000 4.61450000e-03
-9.01980000 4.77226000e-03
-8.98980000 5.02560000e-03
-8.95980000 5.47271000e-03
-8.92980000 6.33294000e-03
-8.89980000 7.85224000e-03
-8.86980000 8.76840000e-03
-8.83980000 7.47276000e-03
-8.80980000 6.21662000e-03
-8.77980000 5.59637000e-03
-8.72093000 5.22046000e-03
-8.69093000 5.22246000e-03
-8.66093000 5.31535000e-03
-8.63093000 5.50913000e-03
-8.60093000 5.89095000e-03
-8.57093000 6.57610000e-03
-8.54093000 7.42679000e-03
-8.51093000 8.36883000e-03
-8.48093000 8.55213000e-03
-8.45093000 7.33003000e-03
-8.42093000 6.41102000e-03
-8.39093000 5.96734000e-03
-8.36093000 5.71496000e-03
-8.33093000 5.59324000e-03
-8.30093000 5.56508000e-03
-8.27093000 5.55799000e-03
-8.24093000 5.55517000e-03
-8.21093000 5.59209000e-03
-8.18093000 5.67474000e-03
-8.15093000 5.81808000e-03
-8.12093000 6.06837000e-03
-8.09093000 6.49911000e-03
-8.06093000 6.93189000e-03
-8.03093000 6.95752000e-03
-8.00093000 7.06292000e-03
-7.97093000 7.38880000e-03
-7.94093000 7.57000000e-03
-7.91093000 7.43205000e-03
-7.88093000 7.07025000e-03
-7.85093000 6.92318000e-03
-7.82093000 6.99676000e-03
-7.79093000 7.25284000e-03
-7.76093000 7.74078000e-03
-7.73093000 8.59976000e-03
-7.70093000 9.74142000e-03
-7.67093000 1.03556000e-02
-7.64093000 1.09842000e-02
-7.61093000 1.28709000e-02
-7.58093000 1.68287000e-02
-7.55093000 2.28846000e-02
-7.52093000 3.02785000e-02
-7.49093000 3.04536000e-02
-7.46093000 2.18569000e-02
-7.43093000 1.55356000e-02
-7.40093000 1.22484000e-02
-7.37093000 1.04542000e-02
-7.34093000 9.43120000e-03
-7.31093000 8.89113000e-03
-7.28093000 8.64272000e-03
-7.25093000 8.60768000e-03
-7.22093000 8.82714000e-03
-7.19093000 9.12419000e-03
-7.13207000 8.84630000e-03
-7.10207000 9.02918000e-03
-7.07207000 9.51072000e-03
-7.04207000 9.88638000e-03
-7.01207000 1.00572000e-02
-6.98207000 1.01534000e-02
-6.95207000 1.07013000e-02
-6.92207000 1.21956000e-02
-6.89207000 1.47050000e-02
-6.86207000 1.56930000e-02
-6.83207000 1.35539000e-02
-6.80207000 1.17348000e-02
-6.77207000 1.09968000e-02
-6.74207000 1.09390000e-02
-6.71207000 1.13770000e-02
-6.68207000 1.19617000e-02
-6.65207000 1.21059000e-02
-6.62207000 1.23891000e-02
-6.59207000 1.33759000e-02
-6.56207000 1.54743000e-02
-6.53207000 1.96683000e-02
-6.50207000 2.69236000e-02
-6.47207000 3.24263000e-02
-6.44207000 2.89052000e-02
-6.41207000 2.34222000e-02
-6.38207000 1.85924000e-02
-6.35207000 1.55827000e-02
-6.32207000 1.40769000e-02
-6.29207000 1.33512000e-02
-6.26207000 1.30261000e-02
-6.23207000 1.29268000e-02
-6.20207000 1.29698000e-02
-6.17207000 1.31135000e-02
-6.14207000 1.33383000e-02
-6.11207000 1.36385000e-02
-6.08207000 1.40198000e-02
-6.05207000 1.44970000e-02
-6.02207000 1.51120000e-02
-5.99207000 1.59827000e-02
-5.96207000 1.72878000e-02
-5.93207000 1.87077000e-02
-5.90207000 1.90566000e-02
-5.87207000 1.93164000e-02
-5.84207000 2.03309000e-02
-5.81207000 2.22881000e-02
-5.78207000 2.57118000e-02
-5.75207000 3.09782000e-02
-5.72207000 3.63703000e-02
-5.69207000 4.31300000e-02
-5.66207000 5.19345000e-02
-5.63207000 5.20982000e-02
-5.60207000 4.24737000e-02
-5.54320000 3.38713000e-02
-5.51320000 3.43589000e-02
-5.48320000 3.71276000e-02
-5.45320000 4.23329000e-02
-5.42320000 4.64192000e-02
-5.39320000 4.57787000e-02
-5.36320000 4.61911000e-02
-5.33320000 4.90955000e-02
-5.30320000 5.40584000e-02
-5.27320000 6.11048000e-02
-5.24320000 7.06739000e-02
-5.21320000 8.38653000e-02
-5.18320000 1.02732000e-01
-5.15320000 1.30900000e-01
-5.12320000 1.75312000e-01
-5.09320000 2.49322000e-01
-5.06320000 3.80967000e-01
-5.03320000 6.30712000e-01
-5.00320000 1.07405000e+00
-4.97320000 1.48947000e+00
-4.94320000 1.16599000e+00
-4.91320000 6.75361000e-01
-4.88320000 4.07460000e-01
-4.85320000 2.76107000e-01
-4.82320000 2.10238000e-01
-4.79320000 1.79474000e-01
-4.76320000 1.72582000e-01
-4.73320000 1.85507000e-01
-4.70320000 1.88911000e-01
-4.67320000 1.69160000e-01
-4.64320000 1.63371000e-01
-4.61320000 1.78183000e-01
-4.58320000 2.05113000e-01
-4.55320000 2.36450000e-01
-4.52320000 2.96390000e-01
-4.49320000 4.17840000e-01
-4.46320000 6.61720000e-01
-4.43320000 1.11134000e+00
-4.40320000 1.46426000e+00
-4.37320000 1.14335000e+00
-4.34320000 7.85661000e-01
-4.31320000 6.83678000e-01
-4.28320000 8.15368000e-01
-4.25320000 1.17651000e+00
-4.22320000 1.33891000e+00
-4.19320000 9.76168000e-01
-4.16320000 6.99047000e-01
-4.13320000 6.40243000e-01
-4.10320000 6.63862000e-01
-4.07320000 5.39359000e-01
-4.04320000 4.15720000e-01
-4.01320000 3.91640000e-01
-3.95433000 6.77986000e-01
-3.92433000 8.94096000e-01
-3.89433000 7.17515000e-01
-3.86433000 4.57187000e-01
-3.83433000 3.23939000e-01
-3.80433000 2.67723000e-01
-3.77433000 2.28532000e-01
-3.74433000 2.01578000e-01
-3.71433000 1.94925000e-01
-3.68433000 2.05553000e-01
-3.65433000 2.36873000e-01
-3.62433000 2.97398000e-01
-3.59433000 3.92157000e-01
-3.56433000 5.58751000e-01
-3.53433000 8.45441000e-01
-3.50433000 1.10323000e+00
-3.47433000 1.18083000e+00
-3.44433000 1.15976000e+00
-3.41433000 1.11670000e+00
-3.38433000 1.05636000e+00
-3.35433000 8.36727000e-01
-3.32433000 6.71336000e-01
-3.29433000 6.64222000e-01
-3.26433000 7.82977000e-01
-3.23433000 1.09759000e+00
-3.20433000 1.58956000e+00
-3.17433000 1.56824000e+00
-3.14433000 1.20292000e+00
-3.11433000 1.08716000e+00
-3.08433000 9.38007000e-01
-3.05433000 6.91007000e-01
-3.02433000 5.74485000e-01
-2.99433000 5.94536000e-01
-2.96433000 7.62221000e-01
-2.93433000 1.15510000e+00
-2.90433000 1.67719000e+00
-2.87433000 1.53298000e+00
-2.84433000 1.04842000e+00
-2.81433000 8.40074000e-01
-2.78433000 9.12872000e-01
-2.75433000 1.27180000e+00
-2.72433000 1.67002000e+00
-2.69433000 1.43488000e+00
-2.66433000 9.01687000e-01
-2.63433000 5.60998000e-01
-2.60433000 3.73815000e-01
-2.57433000 2.68664000e-01
-2.54433000 2.07463000e-01
-2.51433000 1.69573000e-01
-2.48433000 1.45193000e-01
-2.45433000 1.29973000e-01
-2.42433000 1.21640000e-01
-2.36546000 1.22784000e-01
-2.33546000 1.30361000e-01
-2.30546000 1.36916000e-01
-2.27546000 1.55464000e-01
-2.24546000 2.00216000e-01
-2.21546000 2.84594000e-01
-2.18546000 4.12256000e-01
-2.15546000 5.22768000e-01
-2.12546000 4.83661000e-01
-2.09546000 4.48874000e-01
-2.06546000 3.78182000e-01
-2.03546000 3.16333000e-01
-2.00546000 3.46600000e-01
-1.97546000 4.19916000e-01
-1.94546000 3.50479000e-01
-1.91546000 2.28736000e-01
-1.88546000 1.60885000e-01
-1.85546000 1.26523000e-01
-1.82546000 1.03668000e-01
-1.79546000 8.98963000e-02
-1.76546000 8.41014000e-02
-1.73546000 8.53454000e-02
-1.70546000 9.55793000e-02
-1.67546000 1.19324000e-01
-1.64546000 1.48924000e-01
-1.61546000 1.46807000e-01
-1.58546000 1.35562000e-01
-1.55546000 1.50491000e-01
-1.52546000 1.88844000e-01
-1.49546000 2.37419000e-01
-1.46546000 3.01972000e-01
-1.43546000 2.74323000e-01
-1.40546000 1.97073000e-01
-1.37546000 1.61495000e-01
-1.34546000 1.57991000e-01
-1.31546000 1.69676000e-01
-1.28546000 2.11646000e-01
-1.25546000 3.13436000e-01
-1.22546000 4.99408000e-01
-1.19546000 6.27301000e-01
-1.16546000 5.04600000e-01
-1.13546000 3.13060000e-01
-1.10546000 2.02451000e-01
-1.07546000 1.48921000e-01
-1.04546000 1.21911000e-01
-1.01546000 1.09664000e-01
-0.98546500 1.04656000e-01
-0.95546500 1.06947000e-01
-0.92546500 1.19231000e-01
-0.89546500 1.26949000e-01
-0.86546500 1.14565000e-01
-0.83546500 1.06869000e-01
-0.77659700 1.25523000e-01
-0.74659700 1.47157000e-01
-0.71659700 1.72857000e-01
-0.68659700 2.28578000e-01
-0.65659700 3.33997000e-01
-0.62659700 5.01686000e-01
-0.59659700 6.71326000e-01
-0.56659700 6.00908000e-01
-0.53659700 4.51559000e-01
-0.50659700 3.65686000e-01
-0.47659700 3.84263000e-01
-0.44659700 4.84024000e-01
-0.41659700 4.65281000e-01
-0.38659700 3.39386000e-01
-0.35659700 2.48039000e-01
-0.32659700 1.78288000e-01
-0.29659700 1.41689000e-01
-0.26659700 1.21413000e-01
-0.23659700 9.94849000e-02
-0.20659700 8.28795000e-02
-0.17659700 7.33199000e-02
-0.14659700 6.88641000e-02
-0.11659700 6.83517000e-02
-0.08659740 6.88130000e-02
-0.05659740 6.57348000e-02
-0.02659740 6.34662000e-02
0.00340259 6.39293000e-02
0.03340260 6.66412000e-02
0.06340260 7.15780000e-02
0.09340260 8.01306000e-02
0.12340300 9.28756000e-02
0.15340300 1.14157000e-01
0.18340300 1.57183000e-01
0.21340300 2.37194000e-01
0.24340300 2.99564000e-01
0.27340300 2.39126000e-01
0.30340300 1.68269000e-01
0.33340300 1.33220000e-01
0.36340300 1.19857000e-01
0.39340300 1.17856000e-01
0.42340300 1.21965000e-01
0.45340300 1.32435000e-01
0.48340300 1.47498000e-01
0.51340300 1.63023000e-01
0.54340300 1.88198000e-01
0.57340300 2.30676000e-01
0.60340300 3.00112000e-01
0.63340300 4.18802000e-01
0.66340300 5.99828000e-01
0.69340300 8.73440000e-01
0.72340300 1.40334000e+00
0.75340300 1.93903000e+00
