# E(MeV)  S_GAMTGAMT(K=0) for Tm220_DDPCX
-19.82750000 1.61450000e-03
-19.79750000 1.68231000e-03
-19.76750000 1.72330000e-03
-19.73750000 1.75119000e-03
-19.70750000 1.77225000e-03
-19.67750000 1.78941000e-03
-19.64750000 1.80417000e-03
-19.61750000 1.81734000e-03
-19.58750000 1.82941000e-03
-19.55750000 1.84068000e-03
-19.52750000 1.85135000e-03
-19.49750000 1.86155000e-03
-19.46750000 1.87138000e-03
-19.43750000 1.88091000e-03
-19.40750000 1.89019000e-03
-19.37750000 1.89927000e-03
-19.34750000 1.90818000e-03
-19.31750000 1.91693000e-03
-19.28750000 1.92556000e-03
-19.25750000 1.93408000e-03
-19.22750000 1.94251000e-03
-19.19750000 1.95085000e-03
-19.16750000 1.95913000e-03
-19.13750000 1.96734000e-03
-19.10750000 1.97550000e-03
-19.07750000 1.98361000e-03
-19.04750000 1.99168000e-03
-19.01750000 1.99973000e-03
-18.98750000 2.00774000e-03
-18.95750000 2.01574000e-03
-18.92750000 2.02371000e-03
-18.89750000 2.03168000e-03
-18.86750000 2.03964000e-03
-18.83750000 2.04760000e-03
-18.80750000 2.05556000e-03
-18.77750000 2.06352000e-03
-18.74750000 2.07149000e-03
-18.71750000 2.07947000e-03
-18.68750000 2.08747000e-03
-18.65750000 2.09547000e-03
-18.62750000 2.10347000e-03
-18.59750000 2.11148000e-03
-18.56750000 2.11947000e-03
-18.53750000 2.12742000e-03
-18.50750000 2.13527000e-03
-18.47750000 2.14296000e-03
-18.44750000 2.15034000e-03
-18.41750000 2.15716000e-03
-18.38750000 2.16294000e-03
-18.35750000 2.16675000e-03
-18.32750000 2.16666000e-03
-18.29750000 2.15839000e-03
-18.26750000 2.13196000e-03
-18.23750000 2.06656000e-03
-18.20750000 1.96189000e-03
-18.17750000 1.98222000e-03
-18.14750000 2.13839000e-03
-18.11750000 2.26627000e-03
-18.08750000 2.37152000e-03
-18.05750000 2.49257000e-03
-18.02750000 2.67650000e-03
-17.99750000 3.01085000e-03
-17.96750000 3.64695000e-03
-17.93750000 4.39146000e-03
-17.90750000 4.07715000e-03
-17.87750000 3.31211000e-03
-17.84750000 2.87066000e-03
-17.81750000 2.65150000e-03
-17.76350000 2.47283000e-03
-17.73350000 2.41262000e-03
-17.70350000 2.37498000e-03
-17.67350000 2.38184000e-03
-17.64350000 2.39720000e-03
-17.61350000 2.40737000e-03
-17.58350000 2.41599000e-03
-17.55350000 2.42620000e-03
-17.52350000 2.44114000e-03
-17.49350000 2.46617000e-03
-17.46350000 2.50428000e-03
-17.43350000 2.51960000e-03
-17.40350000 2.49529000e-03
-17.37350000 2.47834000e-03
-17.34350000 2.47354000e-03
-17.31350000 2.47488000e-03
-17.28350000 2.47920000e-03
-17.25350000 2.48510000e-03
-17.22350000 2.49193000e-03
-17.19350000 2.49936000e-03
-17.16350000 2.50720000e-03
-17.13350000 2.51536000e-03
-17.10350000 2.52376000e-03
-17.07350000 2.53237000e-03
-17.04350000 2.54116000e-03
-17.01350000 2.55011000e-03
-16.98350000 2.55920000e-03
-16.95350000 2.56843000e-03
-16.92350000 2.57779000e-03
-16.89350000 2.58728000e-03
-16.86350000 2.59690000e-03
-16.83350000 2.60664000e-03
-16.80350000 2.61651000e-03
-16.77350000 2.62651000e-03
-16.74350000 2.63664000e-03
-16.71350000 2.64692000e-03
-16.68350000 2.65733000e-03
-16.65350000 2.66790000e-03
-16.62350000 2.67863000e-03
-16.59350000 2.68954000e-03
-16.56350000 2.70062000e-03
-16.53350000 2.71190000e-03
-16.50350000 2.72340000e-03
-16.47350000 2.73513000e-03
-16.44350000 2.74712000e-03
-16.41350000 2.75940000e-03
-16.38350000 2.77201000e-03
-16.35350000 2.78497000e-03
-16.32350000 2.79836000e-03
-16.29350000 2.81223000e-03
-16.26350000 2.82666000e-03
-16.23350000 2.84175000e-03
-16.20350000 2.85764000e-03
-16.17350000 2.87449000e-03
-16.14350000 2.89252000e-03
-16.11350000 2.91204000e-03
-16.08350000 2.93347000e-03
-16.05350000 2.95739000e-03
-16.02350000 2.98466000e-03
-15.99350000 3.01657000e-03
-15.96350000 3.05518000e-03
-15.93350000 3.10385000e-03
-15.90350000 3.16856000e-03
-15.87350000 3.26063000e-03
-15.84350000 3.40346000e-03
-15.81350000 3.64773000e-03
-15.78350000 4.08016000e-03
-15.75350000 4.60072000e-03
-15.69950000 4.97027000e-03
-15.66950000 5.89694000e-03
-15.63950000 7.14203000e-03
-15.60950000 6.53348000e-03
-15.57950000 5.14058000e-03
-15.54950000 4.36606000e-03
-15.51950000 4.03955000e-03
-15.48950000 3.97759000e-03
-15.45950000 4.11356000e-03
-15.42950000 4.21599000e-03
-15.39950000 4.15486000e-03
-15.36950000 4.31170000e-03
-15.33950000 4.78922000e-03
-15.30950000 4.93348000e-03
-15.27950000 4.36660000e-03
-15.24950000 3.92507000e-03
-15.21950000 3.71217000e-03
-15.18950000 3.62295000e-03
-15.15950000 3.60294000e-03
-15.12950000 3.59331000e-03
-15.09950000 3.55371000e-03
-15.06950000 3.52916000e-03
-15.03950000 3.52597000e-03
-15.00950000 3.53609000e-03
-14.97950000 3.55529000e-03
-14.94950000 3.58208000e-03
-14.91950000 3.61657000e-03
-14.88950000 3.66020000e-03
-14.85950000 3.71614000e-03
-14.82950000 3.79071000e-03
-14.79950000 3.89692000e-03
-14.76950000 4.06324000e-03
-14.73950000 4.35211000e-03
-14.70950000 4.83590000e-03
-14.67950000 5.17543000e-03
-14.64950000 4.91520000e-03
-14.61950000 4.68734000e-03
-14.58950000 4.67910000e-03
-14.55950000 4.83168000e-03
-14.52950000 5.13655000e-03
-14.49950000 5.65157000e-03
-14.46950000 6.53188000e-03
-14.43950000 8.11567000e-03
-14.40950000 1.08562000e-02
-14.37950000 1.45970000e-02
-14.34950000 1.85755000e-02
-14.31950000 2.04509000e-02
-14.28950000 2.24367000e-02
-14.25950000 1.89710000e-02
-14.22950000 1.36278000e-02
-14.19950000 1.03039000e-02
-14.16950000 8.00179000e-03
-14.13950000 6.67348000e-03
-14.10950000 5.95959000e-03
-14.07950000 5.58081000e-03
-14.04950000 5.41316000e-03
-14.01950000 5.42542000e-03
-13.98950000 5.66638000e-03
-13.95950000 6.25387000e-03
-13.92950000 6.90326000e-03
-13.89950000 6.66794000e-03
-13.86950000 6.34676000e-03
-13.83950000 6.52121000e-03
-13.80950000 7.20392000e-03
-13.77950000 7.78774000e-03
-13.74950000 7.93768000e-03
-13.71950000 8.85620000e-03
-13.68950000 1.08142000e-02
-13.63560000 1.41057000e-02
-13.60560000 1.32445000e-02
-13.57560000 1.40350000e-02
-13.54560000 1.56301000e-02
-13.51560000 1.28300000e-02
-13.48560000 9.34971000e-03
-13.45560000 7.45731000e-03
-13.42560000 6.51806000e-03
-13.39560000 6.04950000e-03
-13.36560000 5.83486000e-03
-13.33560000 5.75476000e-03
-13.30560000 5.79769000e-03
-13.27560000 6.02081000e-03
-13.24560000 6.53281000e-03
-13.21560000 7.60460000e-03
-13.18560000 9.70530000e-03
-13.15560000 1.20010000e-02
-13.12560000 1.10644000e-02
-13.09560000 9.34580000e-03
-13.06560000 8.19721000e-03
-13.03560000 7.03975000e-03
-13.00560000 6.35133000e-03
-12.97560000 6.04043000e-03
-12.94560000 5.94714000e-03
-12.91560000 6.01130000e-03
-12.88560000 6.24670000e-03
-12.85560000 6.74181000e-03
-12.82560000 7.59083000e-03
-12.79560000 8.59298000e-03
-12.76560000 1.00961000e-02
-12.73560000 1.27610000e-02
-12.70560000 1.36073000e-02
-12.67560000 1.17408000e-02
-12.64560000 9.64744000e-03
-12.61560000 8.37080000e-03
-12.58560000 7.52993000e-03
-12.55560000 6.90991000e-03
-12.52560000 6.60753000e-03
-12.49560000 6.51717000e-03
-12.46560000 6.51789000e-03
-12.43560000 6.59628000e-03
-12.40560000 6.81326000e-03
-12.37560000 7.24047000e-03
-12.34560000 8.04423000e-03
-12.31560000 9.42896000e-03
-12.28560000 1.09503000e-02
-12.25560000 1.18793000e-02
-12.22560000 1.19775000e-02
-12.19560000 1.13187000e-02
-12.16560000 1.03515000e-02
-12.13560000 1.02518000e-02
-12.10560000 1.06758000e-02
-12.07560000 1.17914000e-02
-12.04560000 1.42198000e-02
-12.01560000 1.81189000e-02
-11.98560000 2.38501000e-02
-11.95560000 3.13700000e-02
-11.92560000 3.33994000e-02
-11.89560000 2.47932000e-02
-11.86560000 1.78100000e-02
-11.83560000 1.47816000e-02
-11.80560000 1.39168000e-02
-11.77560000 1.34648000e-02
-11.74560000 1.35436000e-02
-11.71560000 1.50728000e-02
-11.68560000 1.85574000e-02
-11.65560000 2.32848000e-02
-11.62560000 2.82102000e-02
-11.57160000 4.64554000e-02
-11.54160000 4.16506000e-02
-11.51160000 3.03661000e-02
-11.48160000 2.57951000e-02
-11.45160000 2.30889000e-02
-11.42160000 2.00967000e-02
-11.39160000 1.94917000e-02
-11.36160000 1.82350000e-02
-11.33160000 1.53785000e-02
-11.30160000 1.39564000e-02
-11.27160000 1.42765000e-02
-11.24160000 1.53981000e-02
-11.21160000 1.44972000e-02
-11.18160000 1.26631000e-02
-11.15160000 1.17692000e-02
-11.12160000 1.16975000e-02
-11.09160000 1.22986000e-02
-11.06160000 1.30900000e-02
-11.03160000 1.29769000e-02
-11.00160000 1.27433000e-02
-10.97160000 1.31977000e-02
-10.94160000 1.44991000e-02
-10.91160000 1.66908000e-02
-10.88160000 1.85877000e-02
-10.85160000 1.94370000e-02
-10.82160000 2.08227000e-02
-10.79160000 2.27173000e-02
-10.76160000 2.45436000e-02
-10.73160000 2.89094000e-02
-10.70160000 3.65502000e-02
-10.67160000 4.80827000e-02
-10.64160000 6.72365000e-02
-10.61160000 1.01362000e-01
-10.58160000 1.23484000e-01
-10.55160000 9.16315000e-02
-10.52160000 6.01367000e-02
-10.49160000 4.56558000e-02
-10.46160000 4.17043000e-02
-10.43160000 4.50331000e-02
-10.40160000 5.27120000e-02
-10.37160000 6.30051000e-02
-10.34160000 8.77830000e-02
-10.31160000 1.24651000e-01
-10.28160000 1.18902000e-01
-10.25160000 8.38425000e-02
-10.22160000 6.59728000e-02
-10.19160000 6.36068000e-02
-10.16160000 7.36446000e-02
-10.13160000 1.04561000e-01
-10.10160000 1.53459000e-01
-10.07160000 1.49833000e-01
-10.04160000 9.82361000e-02
-10.01160000 6.49387000e-02
-9.98158000 4.80441000e-02
-9.95158000 3.84661000e-02
-9.92158000 3.35709000e-02
-9.89158000 3.09719000e-02
-9.86158000 2.90263000e-02
-9.83158000 2.79709000e-02
-9.80158000 2.64997000e-02
-9.77158000 2.53587000e-02
-9.74158000 2.53795000e-02
-9.71158000 2.63407000e-02
-9.68158000 2.78761000e-02
-9.65158000 3.00579000e-02
-9.62158000 3.37034000e-02
-9.59158000 3.95858000e-02
-9.56158000 4.83053000e-02
-9.50761000 8.52917000e-02
-9.47761000 1.34337000e-01
-9.44761000 2.04705000e-01
-9.41761000 2.05395000e-01
-9.38761000 1.35686000e-01
-9.35761000 9.02534000e-02
-9.32761000 6.89470000e-02
-9.29761000 5.78857000e-02
-9.26761000 5.25751000e-02
-9.23761000 5.09967000e-02
-9.20761000 5.20076000e-02
-9.17761000 5.57685000e-02
-9.14761000 6.30606000e-02
-9.11761000 7.59838000e-02
-9.08761000 9.79010000e-02
-9.05761000 1.22368000e-01
-9.02761000 1.35580000e-01
-8.99761000 1.64357000e-01
-8.96761000 2.26991000e-01
-8.93761000 2.81480000e-01
-8.90761000 2.74219000e-01
-8.87761000 2.91460000e-01
-8.84761000 3.81765000e-01
-8.81761000 5.93722000e-01
-8.78761000 9.54474000e-01
-8.75761000 1.09353000e+00
-8.72761000 8.94378000e-01
-8.69761000 8.93066000e-01
-8.66761000 1.11034000e+00
-8.63761000 1.05616000e+00
-8.60761000 7.46807000e-01
-8.57761000 5.14234000e-01
-8.54761000 3.87530000e-01
-8.51761000 3.51823000e-01
-8.48761000 3.17074000e-01
-8.45761000 2.28798000e-01
-8.42761000 1.63940000e-01
-8.39761000 1.31371000e-01
-8.36761000 1.18179000e-01
-8.33761000 1.13068000e-01
-8.30761000 1.03888000e-01
-8.27761000 9.34284000e-02
-8.24761000 8.59412000e-02
-8.21761000 7.75715000e-02
-8.18761000 7.29027000e-02
-8.15761000 7.22278000e-02
-8.12761000 7.28794000e-02
-8.09761000 7.29937000e-02
-8.06761000 7.43856000e-02
-8.03761000 7.88536000e-02
-8.00761000 8.67387000e-02
-7.97761000 9.88425000e-02
-7.94761000 1.14785000e-01
-7.91761000 1.33693000e-01
-7.88761000 1.62293000e-01
-7.85761000 2.07936000e-01
-7.82761000 2.78192000e-01
-7.79761000 3.90027000e-01
-7.76761000 5.86293000e-01
-7.73761000 9.75461000e-01
-7.70761000 1.70003000e+00
-7.67761000 2.26014000e+00
-7.64761000 1.68705000e+00
-7.61761000 1.03307000e+00
-7.58761000 7.08393000e-01
-7.55761000 5.30834000e-01
-7.52761000 4.63833000e-01
-7.49761000 4.73743000e-01
-7.44363000 3.41036000e-01
-7.41363000 2.40178000e-01
-7.38363000 1.74327000e-01
-7.35363000 1.37848000e-01
-7.32363000 1.17009000e-01
-7.29363000 1.02984000e-01
-7.26363000 9.47187000e-02
-7.23363000 9.27783000e-02
-7.20363000 9.67220000e-02
-7.17363000 1.01143000e-01
-7.14363000 9.86700000e-02
-7.11363000 9.50003000e-02
-7.08363000 9.24608000e-02
-7.05363000 9.48282000e-02
-7.02363000 1.02104000e-01
-6.99363000 1.15932000e-01
-6.96363000 1.42238000e-01
-6.93363000 1.92583000e-01
-6.90363000 2.82989000e-01
-6.87363000 3.72865000e-01
-6.84363000 3.43400000e-01
-6.81363000 2.88760000e-01
-6.78363000 2.68072000e-01
-6.75363000 2.73472000e-01
-6.72363000 3.20033000e-01
-6.69363000 4.20358000e-01
-6.66363000 6.05823000e-01
-6.63363000 9.63413000e-01
-6.60363000 1.65615000e+00
-6.57363000 2.58291000e+00
-6.54363000 2.39708000e+00
-6.51363000 1.43695000e+00
-6.48363000 8.38478000e-01
-6.45363000 5.38329000e-01
-6.42363000 3.85571000e-01
-6.39363000 3.09507000e-01
-6.36363000 2.70005000e-01
-6.33363000 2.34476000e-01
-6.30363000 2.13685000e-01
-6.27363000 2.12411000e-01
-6.24363000 2.07930000e-01
-6.21363000 2.06184000e-01
-6.18363000 2.26036000e-01
-6.15363000 2.80125000e-01
-6.12363000 3.96251000e-01
-6.09363000 6.32234000e-01
-6.06363000 9.53548000e-01
-6.03363000 8.97702000e-01
-6.00363000 5.85559000e-01
-5.97363000 4.00152000e-01
-5.94363000 3.22625000e-01
-5.91363000 3.03426000e-01
-5.88363000 3.20782000e-01
-5.85363000 3.74888000e-01
-5.82363000 4.83233000e-01
-5.79363000 6.87494000e-01
-5.76363000 1.08434000e+00
-5.73363000 1.86836000e+00
-5.70363000 3.08669000e+00
-5.67363000 3.37484000e+00
-5.64363000 2.16878000e+00
-5.61363000 1.23216000e+00
-5.58363000 7.48507000e-01
-5.55363000 4.96125000e-01
-5.52363000 3.53539000e-01
-5.49363000 2.67397000e-01
-5.46363000 2.14237000e-01
-5.43363000 1.82710000e-01
-5.37966000 1.48984000e-01
-5.34966000 1.34603000e-01
-5.31966000 1.34778000e-01
-5.28966000 1.43371000e-01
-5.25966000 1.28992000e-01
-5.22966000 1.04899000e-01
-5.19966000 8.80362000e-02
-5.16966000 7.77304000e-02
-5.13966000 7.04816000e-02
-5.10966000 6.51022000e-02
-5.07966000 6.00261000e-02
-5.04966000 5.52066000e-02
-5.01966000 5.25490000e-02
-4.98966000 5.21225000e-02
-4.95966000 5.43764000e-02
-4.92966000 5.85337000e-02
-4.89966000 5.83850000e-02
-4.86966000 5.78737000e-02
-4.83966000 5.87192000e-02
-4.80966000 5.36417000e-02
-4.77966000 4.76748000e-02
-4.74966000 4.47347000e-02
-4.71966000 4.38538000e-02
-4.68966000 4.40403000e-02
-4.65966000 4.50167000e-02
-4.62966000 4.72820000e-02
-4.59966000 5.13868000e-02
-4.56966000 5.81217000e-02
-4.53966000 6.88015000e-02
-4.50966000 8.67557000e-02
-4.47966000 1.11681000e-01
-4.44966000 1.20702000e-01
-4.41966000 1.10161000e-01
-4.38966000 1.12983000e-01
-4.35966000 1.39008000e-01
-4.32966000 1.99685000e-01
-4.29966000 3.08073000e-01
-4.26966000 3.91768000e-01
-4.23966000 3.20912000e-01
-4.20966000 2.32929000e-01
-4.17966000 2.03843000e-01
-4.14966000 2.27474000e-01
-4.11966000 3.14543000e-01
-4.08966000 4.52032000e-01
-4.05966000 4.39422000e-01
-4.02966000 2.86728000e-01
-3.99966000 1.88301000e-01
-3.96966000 1.41032000e-01
-3.93966000 1.22476000e-01
-3.90966000 1.24327000e-01
-3.87966000 1.37119000e-01
-3.84966000 1.47162000e-01
-3.81966000 1.51655000e-01
-3.78966000 1.37453000e-01
-3.75966000 1.30186000e-01
-3.72966000 1.44840000e-01
-3.69966000 1.85028000e-01
-3.66966000 2.16490000e-01
-3.63966000 1.88217000e-01
-3.60966000 1.65903000e-01
-3.57966000 1.75251000e-01
-3.54966000 1.75017000e-01
-3.51966000 1.62244000e-01
-3.48966000 1.69835000e-01
-3.45966000 1.78359000e-01
-3.42966000 1.95640000e-01
-3.39966000 2.57129000e-01
-3.36966000 3.36652000e-01
-3.31568000 2.58949000e-01
-3.28568000 1.93114000e-01
-3.25568000 1.66570000e-01
-3.22568000 1.64902000e-01
-3.19568000 1.81300000e-01
-3.16568000 2.28063000e-01
-3.13568000 3.23784000e-01
-3.10568000 4.78985000e-01
-3.07568000 7.04105000e-01
-3.04568000 8.01179000e-01
-3.01568000 6.87434000e-01
-2.98568000 5.78893000e-01
-2.95568000 4.32791000e-01
-2.92568000 3.08389000e-01
-2.89568000 2.32516000e-01
-2.86568000 1.89168000e-01
-2.83568000 1.71217000e-01
-2.80568000 1.76644000e-01
-2.77568000 1.92464000e-01
-2.74568000 2.09953000e-01
-2.71568000 2.53912000e-01
-2.68568000 2.94706000e-01
-2.65568000 3.01821000e-01
-2.62568000 3.50055000e-01
-2.59568000 4.69624000e-01
-2.56568000 6.41599000e-01
-2.53568000 6.52051000e-01
-2.50568000 5.14203000e-01
-2.47568000 4.43124000e-01
-2.44568000 4.20423000e-01
-2.41568000 3.98578000e-01
-2.38568000 3.83750000e-01
-2.35568000 4.02224000e-01
-2.32568000 4.62046000e-01
-2.29568000 5.07360000e-01
-2.26568000 6.04411000e-01
-2.23568000 8.12664000e-01
-2.20568000 9.24675000e-01
-2.17568000 7.55394000e-01
-2.14568000 6.06642000e-01
-2.11568000 5.84596000e-01
-2.08568000 6.64048000e-01
-2.05568000 7.94861000e-01
-2.02568000 8.72631000e-01
-1.99568000 1.03515000e+00
-1.96568000 1.20976000e+00
-1.93568000 1.48220000e+00
-1.90568000 1.52734000e+00
-1.87568000 1.09492000e+00
-1.84568000 6.97284000e-01
-1.81568000 4.84447000e-01
-1.78568000 3.71465000e-01
-1.75568000 3.18463000e-01
-1.72568000 2.99363000e-01
-1.69568000 2.99532000e-01
-1.66568000 2.80583000e-01
-1.63568000 2.59601000e-01
-1.60568000 2.62826000e-01
-1.57568000 2.84633000e-01
-1.54568000 3.37252000e-01
-1.51568000 4.53785000e-01
-1.48568000 5.82983000e-01
-1.45568000 6.14681000e-01
-1.42568000 7.06623000e-01
-1.39568000 8.39511000e-01
-1.36568000 7.88114000e-01
-1.33568000 7.31976000e-01
-1.30568000 7.64545000e-01
-1.25171000 1.03627000e+00
-1.22171000 1.26751000e+00
-1.19171000 1.49445000e+00
-1.16171000 1.48669000e+00
-1.13171000 1.19067000e+00
-1.10171000 9.78141000e-01
-1.07171000 8.85471000e-01
-1.04171000 9.45529000e-01
-1.01171000 1.25600000e+00
-0.98170600 1.81232000e+00
-0.95170600 2.03548000e+00
-0.92170600 1.50841000e+00
-0.89170600 9.80837000e-01
-0.86170600 7.19585000e-01
-0.83170600 6.59249000e-01
-0.80170600 7.03417000e-01
-0.77170600 6.75464000e-01
-0.74170600 6.02269000e-01
-0.71170600 5.64871000e-01
-0.68170600 5.29390000e-01
-0.65170600 5.67908000e-01
-0.62170600 5.86586000e-01
-0.59170600 4.52372000e-01
-0.56170600 3.42434000e-01
-0.53170600 2.85539000e-01
-0.50170600 2.60651000e-01
-0.47170600 2.64268000e-01
-0.44170600 2.61169000e-01
-0.41170600 2.49643000e-01
-0.38170600 2.45997000e-01
-0.35170600 2.78065000e-01
-0.32170600 3.47773000e-01
-0.29170600 3.69980000e-01
-0.26170600 3.58878000e-01
-0.23170600 3.79103000e-01
-0.20170600 3.81381000e-01
-0.17170600 3.69526000e-01
-0.14170600 3.93087000e-01
-0.11170600 3.92013000e-01
-0.08170570 3.60709000e-01
-0.05170570 3.58796000e-01
-0.02170570 4.05029000e-01
0.00829426 4.90743000e-01
0.03829430 6.65171000e-01
0.06829430 8.74826000e-01
0.09829430 7.91143000e-01
0.12829400 6.21682000e-01
0.15829400 6.10265000e-01
0.18829400 6.80486000e-01
0.21829400 6.21547000e-01
0.24829400 4.83886000e-01
0.27829400 3.98749000e-01
0.30829400 3.91006000e-01
0.33829400 4.63642000e-01
0.36829400 5.90230000e-01
0.39829400 6.87976000e-01
0.42829400 6.63393000e-01
0.45829400 6.19551000e-01
0.48829400 5.84493000e-01
0.51829400 5.72786000e-01
0.54829400 6.13088000e-01
0.57829400 7.33402000e-01
0.60829400 8.04744000e-01
0.63829400 7.40892000e-01
0.66829400 7.50125000e-01
0.69829400 8.32252000e-01
0.72829400 7.75657000e-01
0.75829400 6.37452000e-01
