# E(MeV)  S_GAMTGAMT(K=1) for Tm220_DDPCX
-19.82750000 1.48700000e-03
-19.79750000 1.59694000e-03
-19.76750000 1.66358000e-03
-19.73750000 1.70843000e-03
-19.70750000 1.74131000e-03
-19.67750000 1.76705000e-03
-19.64750000 1.78825000e-03
-19.61750000 1.80638000e-03
-19.58750000 1.82235000e-03
-19.55750000 1.83674000e-03
-19.52750000 1.84994000e-03
-19.49750000 1.86223000e-03
-19.46750000 1.87379000e-03
-19.43750000 1.88477000e-03
-19.40750000 1.89528000e-03
-19.37750000 1.90540000e-03
-19.34750000 1.91519000e-03
-19.31750000 1.92470000e-03
-19.28750000 1.93398000e-03
-19.25750000 1.94306000e-03
-19.22750000 1.95196000e-03
-19.19750000 1.96071000e-03
-19.16750000 1.96932000e-03
-19.13750000 1.97782000e-03
-19.10750000 1.98622000e-03
-19.07750000 1.99452000e-03
-19.04750000 2.00275000e-03
-19.01750000 2.01090000e-03
-18.98750000 2.01900000e-03
-18.95750000 2.02703000e-03
-18.92750000 2.03502000e-03
-18.89750000 2.04295000e-03
-18.86750000 2.05085000e-03
-18.83750000 2.05871000e-03
-18.80750000 2.06652000e-03
-18.77750000 2.07429000e-03
-18.74750000 2.08198000e-03
-18.71750000 2.08957000e-03
-18.68750000 2.09719000e-03
-18.65750000 2.10507000e-03
-18.62750000 2.11294000e-03
-18.59750000 2.12069000e-03
-18.56750000 2.12837000e-03
-18.53750000 2.13595000e-03
-18.50750000 2.14340000e-03
-18.47750000 2.15060000e-03
-18.44750000 2.15731000e-03
-18.41750000 2.16333000e-03
-18.38750000 2.17028000e-03
-18.35750000 2.17895000e-03
-18.32750000 2.18683000e-03
-18.29750000 2.19314000e-03
-18.26750000 2.19710000e-03
-18.23750000 2.19917000e-03
-18.20750000 2.20783000e-03
-18.17750000 2.22188000e-03
-18.14750000 2.23379000e-03
-18.11750000 2.24378000e-03
-18.08750000 2.25287000e-03
-18.05750000 2.26156000e-03
-18.02750000 2.27004000e-03
-17.99750000 2.27842000e-03
-17.96750000 2.28687000e-03
-17.93750000 2.29559000e-03
-17.90750000 2.30446000e-03
-17.87750000 2.31351000e-03
-17.84750000 2.32290000e-03
-17.81750000 2.33290000e-03
-17.76350000 2.35451000e-03
-17.73350000 2.37151000e-03
-17.70350000 2.39672000e-03
-17.67350000 2.42595000e-03
-17.64350000 2.42749000e-03
-17.61350000 2.41537000e-03
-17.58350000 2.41221000e-03
-17.55350000 2.41572000e-03
-17.52350000 2.42279000e-03
-17.49350000 2.43230000e-03
-17.46350000 2.44440000e-03
-17.43350000 2.45970000e-03
-17.40350000 2.47496000e-03
-17.37350000 2.48864000e-03
-17.34350000 2.50978000e-03
-17.31350000 2.54681000e-03
-17.28350000 2.61433000e-03
-17.25350000 2.71165000e-03
-17.22350000 2.72109000e-03
-17.19350000 2.64210000e-03
-17.16350000 2.59265000e-03
-17.13350000 2.57352000e-03
-17.10350000 2.56970000e-03
-17.07350000 2.57452000e-03
-17.04350000 2.58650000e-03
-17.01350000 2.60827000e-03
-16.98350000 2.64659000e-03
-16.95350000 2.69156000e-03
-16.92350000 2.68382000e-03
-16.89350000 2.65315000e-03
-16.86350000 2.63918000e-03
-16.83350000 2.63686000e-03
-16.80350000 2.64008000e-03
-16.77350000 2.64604000e-03
-16.74350000 2.65350000e-03
-16.71350000 2.66185000e-03
-16.68350000 2.67080000e-03
-16.65350000 2.68017000e-03
-16.62350000 2.68987000e-03
-16.59350000 2.69984000e-03
-16.56350000 2.71006000e-03
-16.53350000 2.72049000e-03
-16.50350000 2.73113000e-03
-16.47350000 2.74198000e-03
-16.44350000 2.75304000e-03
-16.41350000 2.76433000e-03
-16.38350000 2.77585000e-03
-16.35350000 2.78763000e-03
-16.32350000 2.79969000e-03
-16.29350000 2.81205000e-03
-16.26350000 2.82477000e-03
-16.23350000 2.83788000e-03
-16.20350000 2.85146000e-03
-16.17350000 2.86557000e-03
-16.14350000 2.88033000e-03
-16.11350000 2.89587000e-03
-16.08350000 2.91237000e-03
-16.05350000 2.93009000e-03
-16.02350000 2.94939000e-03
-15.99350000 2.97078000e-03
-15.96350000 2.99507000e-03
-15.93350000 3.02351000e-03
-15.90350000 3.05826000e-03
-15.87350000 3.10322000e-03
-15.84350000 3.16609000e-03
-15.81350000 3.26342000e-03
-15.78350000 3.43102000e-03
-15.75350000 3.71182000e-03
-15.69950000 3.86143000e-03
-15.66950000 3.80271000e-03
-15.63950000 3.96601000e-03
-15.60950000 4.42443000e-03
-15.57950000 5.08869000e-03
-15.54950000 5.36506000e-03
-15.51950000 5.81704000e-03
-15.48950000 6.65196000e-03
-15.45950000 6.08419000e-03
-15.42950000 4.86990000e-03
-15.39950000 4.16535000e-03
-15.36950000 3.81624000e-03
-15.33950000 3.63650000e-03
-15.30950000 3.54114000e-03
-15.27950000 3.49344000e-03
-15.24950000 3.47170000e-03
-15.21950000 3.45437000e-03
-15.18950000 3.44590000e-03
-15.15950000 3.45093000e-03
-15.12950000 3.46786000e-03
-15.09950000 3.49674000e-03
-15.06950000 3.54214000e-03
-15.03950000 3.61830000e-03
-15.00950000 3.75408000e-03
-14.97950000 3.95589000e-03
-14.94950000 4.01143000e-03
-14.91950000 3.89067000e-03
-14.88950000 3.83191000e-03
-14.85950000 3.84921000e-03
-14.82950000 3.92224000e-03
-14.79950000 4.05464000e-03
-14.76950000 4.27344000e-03
-14.73950000 4.61203000e-03
-14.70950000 5.15835000e-03
-14.67950000 6.18279000e-03
-14.64950000 7.57913000e-03
-14.61950000 8.07949000e-03
-14.58950000 7.24804000e-03
-14.55950000 6.97605000e-03
-14.52950000 7.49126000e-03
-14.49950000 7.34373000e-03
-14.46950000 6.78099000e-03
-14.43950000 7.03454000e-03
-14.40950000 8.13777000e-03
-14.37950000 8.63178000e-03
-14.34950000 8.09830000e-03
-14.31950000 8.52797000e-03
-14.28950000 1.07226000e-02
-14.25950000 1.47098000e-02
-14.22950000 1.61860000e-02
-14.19950000 1.34343000e-02
-14.16950000 9.72227000e-03
-14.13950000 7.32360000e-03
-14.10950000 6.08889000e-03
-14.07950000 5.43614000e-03
-14.04950000 5.07109000e-03
-14.01950000 4.86169000e-03
-13.98950000 4.74871000e-03
-13.95950000 4.70749000e-03
-13.92950000 4.73130000e-03
-13.89950000 4.79031000e-03
-13.86950000 4.83221000e-03
-13.83950000 4.92912000e-03
-13.80950000 5.14414000e-03
-13.77950000 5.55183000e-03
-13.74950000 6.30699000e-03
-13.71950000 7.43745000e-03
-13.68950000 8.18590000e-03
-13.63560000 9.66988000e-03
-13.60560000 1.02581000e-02
-13.57560000 9.23508000e-03
-13.54560000 9.10691000e-03
-13.51560000 1.06788000e-02
-13.48560000 1.23214000e-02
-13.45560000 1.07021000e-02
-13.42560000 8.86583000e-03
-13.39560000 8.37709000e-03
-13.36560000 8.64743000e-03
-13.33560000 9.14773000e-03
-13.30560000 8.67365000e-03
-13.27560000 7.85537000e-03
-13.24560000 7.74045000e-03
-13.21560000 8.41270000e-03
-13.18560000 1.02576000e-02
-13.15560000 1.40358000e-02
-13.12560000 1.79763000e-02
-13.09560000 1.62053000e-02
-13.06560000 1.37806000e-02
-13.03560000 1.40106000e-02
-13.00560000 1.40556000e-02
-12.97560000 1.26801000e-02
-12.94560000 1.19383000e-02
-12.91560000 1.10130000e-02
-12.88560000 9.01064000e-03
-12.85560000 7.52358000e-03
-12.82560000 6.74741000e-03
-12.79560000 6.36638000e-03
-12.76560000 6.22418000e-03
-12.73560000 6.08599000e-03
-12.70560000 5.98066000e-03
-12.67560000 6.02348000e-03
-12.64560000 6.22715000e-03
-12.61560000 6.57603000e-03
-12.58560000 6.69108000e-03
-12.55560000 6.79980000e-03
-12.52560000 7.35665000e-03
-12.49560000 8.16392000e-03
-12.46560000 8.97404000e-03
-12.43560000 9.08309000e-03
-12.40560000 8.02967000e-03
-12.37560000 7.25938000e-03
-12.34560000 6.94988000e-03
-12.31560000 6.85278000e-03
-12.28560000 7.05679000e-03
-12.25560000 7.64865000e-03
-12.22560000 8.29938000e-03
-12.19560000 8.57007000e-03
-12.16560000 9.43157000e-03
-12.13560000 1.12654000e-02
-12.10560000 1.22616000e-02
-12.07560000 1.18303000e-02
-12.04560000 1.11058000e-02
-12.01560000 1.08343000e-02
-11.98560000 1.21202000e-02
-11.95560000 1.47919000e-02
-11.92560000 1.64900000e-02
-11.89560000 1.53006000e-02
-11.86560000 1.39404000e-02
-11.83560000 1.45807000e-02
-11.80560000 1.44532000e-02
-11.77560000 1.26074000e-02
-11.74560000 1.22161000e-02
-11.71560000 1.33759000e-02
-11.68560000 1.34017000e-02
-11.65560000 1.26083000e-02
-11.62560000 1.29337000e-02
-11.57160000 1.21673000e-02
-11.54160000 1.19521000e-02
-11.51160000 1.11098000e-02
-11.48160000 9.99847000e-03
-11.45160000 9.56097000e-03
-11.42160000 9.41132000e-03
-11.39160000 9.21309000e-03
-11.36160000 9.33651000e-03
-11.33160000 9.88145000e-03
-11.30160000 1.06519000e-02
-11.27160000 1.10196000e-02
-11.24160000 1.12772000e-02
-11.21160000 1.24344000e-02
-11.18160000 1.42919000e-02
-11.15160000 1.50258000e-02
-11.12160000 1.40265000e-02
-11.09160000 1.36709000e-02
-11.06160000 1.44593000e-02
-11.03160000 1.58502000e-02
-11.00160000 1.84282000e-02
-10.97160000 2.37315000e-02
-10.94160000 3.28769000e-02
-10.91160000 3.58367000e-02
-10.88160000 2.82027000e-02
-10.85160000 2.35584000e-02
-10.82160000 2.34253000e-02
-10.79160000 2.61418000e-02
-10.76160000 3.21686000e-02
-10.73160000 4.11878000e-02
-10.70160000 5.07061000e-02
-10.67160000 4.74731000e-02
-10.64160000 3.83784000e-02
-10.61160000 3.66604000e-02
-10.58160000 4.15149000e-02
-10.55160000 4.01728000e-02
-10.52160000 3.04970000e-02
-10.49160000 2.42576000e-02
-10.46160000 2.20543000e-02
-10.43160000 2.21103000e-02
-10.40160000 2.24493000e-02
-10.37160000 2.37395000e-02
-10.34160000 2.73613000e-02
-10.31160000 3.56020000e-02
-10.28160000 4.75812000e-02
-10.25160000 5.27795000e-02
-10.22160000 5.87618000e-02
-10.19160000 7.26717000e-02
-10.16160000 7.29898000e-02
-10.13160000 6.23169000e-02
-10.10160000 6.21302000e-02
-10.07160000 7.74609000e-02
-10.04160000 1.07719000e-01
-10.01160000 1.20330000e-01
-9.98158000 8.61264000e-02
-9.95158000 5.61673000e-02
-9.92158000 4.06704000e-02
-9.89158000 3.44736000e-02
-9.86158000 3.31549000e-02
-9.83158000 3.44597000e-02
-9.80158000 3.40993000e-02
-9.77158000 2.94766000e-02
-9.74158000 2.59398000e-02
-9.71158000 2.50970000e-02
-9.68158000 2.45329000e-02
-9.65158000 2.36853000e-02
-9.62158000 2.41346000e-02
-9.59158000 2.49052000e-02
-9.56158000 2.60572000e-02
-9.50761000 3.65604000e-02
-9.47761000 4.79926000e-02
-9.44761000 4.94075000e-02
-9.41761000 3.72039000e-02
-9.38761000 2.87571000e-02
-9.35761000 2.54715000e-02
-9.32761000 2.49172000e-02
-9.29761000 2.68918000e-02
-9.26761000 3.16831000e-02
-9.23761000 4.01449000e-02
-9.20761000 5.36308000e-02
-9.17761000 5.57412000e-02
-9.14761000 4.16675000e-02
-9.11761000 3.17880000e-02
-9.08761000 2.82569000e-02
-9.05761000 2.87306000e-02
-9.02761000 2.95839000e-02
-8.99761000 2.73444000e-02
-8.96761000 2.57203000e-02
-8.93761000 2.66536000e-02
-8.90761000 2.84827000e-02
-8.87761000 2.82835000e-02
-8.84761000 2.78209000e-02
-8.81761000 2.83967000e-02
-8.78761000 3.07134000e-02
-8.75761000 3.49471000e-02
-8.72761000 4.15151000e-02
-8.69761000 5.30414000e-02
-8.66761000 7.40317000e-02
-8.63761000 1.07458000e-01
-8.60761000 1.45268000e-01
-8.57761000 1.76177000e-01
-8.54761000 2.19346000e-01
-8.51761000 1.94431000e-01
-8.48761000 1.25534000e-01
-8.45761000 8.27337000e-02
-8.42761000 6.13696000e-02
-8.39761000 5.22220000e-02
-8.36761000 4.91886000e-02
-8.33761000 4.43211000e-02
-8.30761000 3.94647000e-02
-8.27761000 3.78673000e-02
-8.24761000 3.90332000e-02
-8.21761000 4.19689000e-02
-8.18761000 4.70940000e-02
-8.15761000 5.56469000e-02
-8.12761000 6.74007000e-02
-8.09761000 9.07157000e-02
-8.06761000 1.36843000e-01
-8.03761000 1.91098000e-01
-8.00761000 1.87665000e-01
-7.97761000 1.33497000e-01
-7.94761000 9.44341000e-02
-7.91761000 7.39825000e-02
-7.88761000 6.37528000e-02
-7.85761000 5.88631000e-02
-7.82761000 5.87306000e-02
-7.79761000 6.59293000e-02
-7.76761000 7.54425000e-02
-7.73761000 7.87178000e-02
-7.70761000 7.75648000e-02
-7.67761000 6.91466000e-02
-7.64761000 6.28731000e-02
-7.61761000 6.24029000e-02
-7.58761000 6.48970000e-02
-7.55761000 6.74214000e-02
-7.52761000 7.02113000e-02
-7.49761000 8.09037000e-02
-7.44363000 7.92925000e-02
-7.41363000 6.90806000e-02
-7.38363000 6.51744000e-02
-7.35363000 6.49449000e-02
-7.32363000 6.69718000e-02
-7.29363000 7.08240000e-02
-7.26363000 7.75839000e-02
-7.23363000 9.05702000e-02
-7.20363000 1.10673000e-01
-7.17363000 1.36436000e-01
-7.14363000 1.70607000e-01
-7.11363000 1.93022000e-01
-7.08363000 1.80267000e-01
-7.05363000 1.77090000e-01
-7.02363000 1.81397000e-01
-6.99363000 1.85055000e-01
-6.96363000 2.04110000e-01
-6.93363000 2.47718000e-01
-6.90363000 3.26366000e-01
-6.87363000 4.64730000e-01
-6.84363000 6.63355000e-01
-6.81363000 8.27192000e-01
-6.78363000 1.03703000e+00
-6.75363000 1.35971000e+00
-6.72363000 1.41002000e+00
-6.69363000 1.03098000e+00
-6.66363000 6.79079000e-01
-6.63363000 5.04082000e-01
-6.60363000 4.43209000e-01
-6.57363000 4.56018000e-01
-6.54363000 5.38514000e-01
-6.51363000 7.24568000e-01
-6.48363000 1.08696000e+00
-6.45363000 1.53160000e+00
-6.42363000 1.78619000e+00
-6.39363000 2.13824000e+00
-6.36363000 1.95280000e+00
-6.33363000 1.42333000e+00
-6.30363000 1.24149000e+00
-6.27363000 1.47890000e+00
-6.24363000 2.18434000e+00
-6.21363000 2.73381000e+00
-6.18363000 2.07475000e+00
-6.15363000 1.27086000e+00
-6.12363000 8.33059000e-01
-6.09363000 6.27407000e-01
-6.06363000 5.51248000e-01
-6.03363000 5.26711000e-01
-6.00363000 4.72007000e-01
-5.97363000 4.39912000e-01
-5.94363000 4.65877000e-01
-5.91363000 5.67228000e-01
-5.88363000 7.89514000e-01
-5.85363000 1.07147000e+00
-5.82363000 1.09407000e+00
-5.79363000 1.04431000e+00
-5.76363000 9.59285000e-01
-5.73363000 9.50815000e-01
-5.70363000 1.14565000e+00
-5.67363000 1.38551000e+00
-5.64363000 1.73534000e+00
-5.61363000 2.52616000e+00
-5.58363000 2.95475000e+00
-5.55363000 2.14298000e+00
-5.52363000 1.39323000e+00
-5.49363000 1.03676000e+00
-5.46363000 9.15129000e-01
-5.43363000 9.44643000e-01
-5.37966000 1.39362000e+00
-5.34966000 2.01861000e+00
-5.31966000 3.21143000e+00
-5.28966000 4.90360000e+00
-5.25966000 5.88344000e+00
-5.22966000 6.97158000e+00
-5.19966000 7.23921000e+00
-5.16966000 4.81224000e+00
-5.13966000 2.87495000e+00
-5.10966000 1.89320000e+00
-5.07966000 1.28244000e+00
-5.04966000 8.90669000e-01
-5.01966000 6.56830000e-01
-4.98966000 5.10613000e-01
-4.95966000 4.12293000e-01
-4.92966000 3.43449000e-01
-4.89966000 2.93494000e-01
-4.86966000 2.58035000e-01
-4.83966000 2.28375000e-01
-4.80966000 1.99604000e-01
-4.77966000 1.76593000e-01
-4.74966000 1.59199000e-01
-4.71966000 1.45625000e-01
-4.68966000 1.35845000e-01
-4.65966000 1.30240000e-01
-4.62966000 1.29838000e-01
-4.59966000 1.32069000e-01
-4.56966000 1.30086000e-01
-4.53966000 1.29892000e-01
-4.50966000 1.39359000e-01
-4.47966000 1.56549000e-01
-4.44966000 1.61472000e-01
-4.41966000 1.49667000e-01
-4.38966000 1.50372000e-01
-4.35966000 1.69231000e-01
-4.32966000 1.83541000e-01
-4.29966000 1.95737000e-01
-4.26966000 2.22003000e-01
-4.23966000 2.32600000e-01
-4.20966000 2.55201000e-01
-4.17966000 3.00077000e-01
-4.14966000 2.73803000e-01
-4.11966000 2.02403000e-01
-4.08966000 1.65573000e-01
-4.05966000 1.56984000e-01
-4.02966000 1.67099000e-01
-3.99966000 2.01338000e-01
-3.96966000 2.43872000e-01
-3.93966000 2.73704000e-01
-3.90966000 3.06246000e-01
-3.87966000 3.18535000e-01
-3.84966000 2.86404000e-01
-3.81966000 2.63682000e-01
-3.78966000 2.73336000e-01
-3.75966000 2.83009000e-01
-3.72966000 2.92554000e-01
-3.69966000 2.95459000e-01
-3.66966000 3.27038000e-01
-3.63966000 3.75406000e-01
-3.60966000 4.79870000e-01
-3.57966000 6.69120000e-01
-3.54966000 8.84292000e-01
-3.51966000 8.80948000e-01
-3.48966000 5.95946000e-01
-3.45966000 3.76325000e-01
-3.42966000 2.69042000e-01
-3.39966000 2.21317000e-01
-3.36966000 1.95319000e-01
-3.31568000 1.83411000e-01
-3.28568000 2.09260000e-01
-3.25568000 2.64985000e-01
-3.22568000 2.98931000e-01
-3.19568000 2.66459000e-01
-3.16568000 2.16797000e-01
-3.13568000 1.92652000e-01
-3.10568000 1.93313000e-01
-3.07568000 2.09913000e-01
-3.04568000 2.39991000e-01
-3.01568000 2.72177000e-01
-2.98568000 2.65642000e-01
-2.95568000 2.57411000e-01
-2.92568000 2.69562000e-01
-2.89568000 3.01124000e-01
-2.86568000 3.80376000e-01
-2.83568000 4.79093000e-01
-2.80568000 4.53160000e-01
-2.77568000 3.26323000e-01
-2.74568000 2.42972000e-01
-2.71568000 2.10233000e-01
-2.68568000 2.18154000e-01
-2.65568000 2.55788000e-01
-2.62568000 2.69532000e-01
-2.59568000 2.62113000e-01
-2.56568000 2.75749000e-01
-2.53568000 3.13381000e-01
-2.50568000 3.13303000e-01
-2.47568000 3.13239000e-01
-2.44568000 3.06333000e-01
-2.41568000 2.59884000e-01
-2.38568000 2.11504000e-01
-2.35568000 1.93371000e-01
-2.32568000 2.04400000e-01
-2.29568000 2.51816000e-01
-2.26568000 3.46182000e-01
-2.23568000 4.26564000e-01
-2.20568000 4.36934000e-01
-2.17568000 4.03090000e-01
-2.14568000 3.79475000e-01
-2.11568000 3.71250000e-01
-2.08568000 4.24584000e-01
-2.05568000 5.73644000e-01
-2.02568000 7.52443000e-01
-1.99568000 6.80636000e-01
-1.96568000 5.18165000e-01
-1.93568000 4.61669000e-01
-1.90568000 4.93969000e-01
-1.87568000 5.85370000e-01
-1.84568000 6.38177000e-01
-1.81568000 5.97221000e-01
-1.78568000 5.48235000e-01
-1.75568000 5.92270000e-01
-1.72568000 6.76694000e-01
-1.69568000 6.39690000e-01
-1.66568000 5.46877000e-01
-1.63568000 4.55045000e-01
-1.60568000 3.99513000e-01
-1.57568000 4.02879000e-01
-1.54568000 4.57256000e-01
-1.51568000 5.41766000e-01
-1.48568000 7.00776000e-01
-1.45568000 9.63131000e-01
-1.42568000 1.04414000e+00
-1.39568000 8.48953000e-01
-1.36568000 7.32837000e-01
-1.33568000 7.91190000e-01
-1.30568000 9.59391000e-01
-1.25171000 1.23974000e+00
-1.22171000 1.64656000e+00
-1.19171000 1.78690000e+00
-1.16171000 1.38355000e+00
-1.13171000 1.06246000e+00
-1.10171000 9.40937000e-01
-1.07171000 9.81644000e-01
-1.04171000 1.07664000e+00
-1.01171000 1.15107000e+00
-0.98170600 1.16153000e+00
-0.95170600 1.03043000e+00
-0.92170600 9.90612000e-01
-0.89170600 9.81063000e-01
-0.86170600 9.58783000e-01
-0.83170600 1.03729000e+00
-0.80170600 1.32088000e+00
-0.77170600 1.92557000e+00
-0.74170600 2.75376000e+00
-0.71170600 2.90285000e+00
-0.68170600 2.30256000e+00
-0.65170600 1.94235000e+00
-0.62170600 2.07956000e+00
-0.59170600 2.67462000e+00
-0.56170600 3.16177000e+00
-0.53170600 3.04587000e+00
-0.50170600 2.60559000e+00
-0.47170600 1.98646000e+00
-0.44170600 1.59556000e+00
-0.41170600 1.46936000e+00
-0.38170600 1.51182000e+00
-0.35170600 1.83645000e+00
-0.32170600 2.59864000e+00
-0.29170600 3.69508000e+00
-0.26170600 3.71181000e+00
-0.23170600 2.99391000e+00
-0.20170600 2.81151000e+00
-0.17170600 2.81686000e+00
-0.14170600 2.61188000e+00
-0.11170600 2.09753000e+00
-0.08170570 1.64285000e+00
-0.05170570 1.42205000e+00
-0.02170570 1.38216000e+00
0.00829426 1.33524000e+00
0.03829430 1.35589000e+00
0.06829430 1.42542000e+00
0.09829430 1.17743000e+00
0.12829400 9.43824000e-01
0.15829400 8.23139000e-01
0.18829400 6.99270000e-01
0.21829400 6.25501000e-01
0.24829400 6.08845000e-01
0.27829400 6.42729000e-01
0.30829400 6.33566000e-01
0.33829400 5.98102000e-01
0.36829400 6.18683000e-01
0.39829400 7.22680000e-01
0.42829400 9.27956000e-01
0.45829400 1.26053000e+00
0.48829400 1.51951000e+00
0.51829400 1.41989000e+00
0.54829400 1.14135000e+00
0.57829400 9.55538000e-01
0.60829400 9.11960000e-01
0.63829400 9.10742000e-01
0.66829400 8.37876000e-01
0.69829400 7.22862000e-01
0.72829400 6.72752000e-01
0.75829400 6.85677000e-01
