# E(MeV)  S_GAMTGAMT(K=0) for Xe139_DDPCX
-4.94616000 4.30177000e-03
-4.91616000 4.37102000e-03
-4.88616000 4.44327000e-03
-4.85616000 4.51873000e-03
-4.82616000 4.59766000e-03
-4.79616000 4.68033000e-03
-4.76616000 4.76705000e-03
-4.73616000 4.85817000e-03
-4.70616000 4.95406000e-03
-4.67616000 5.05516000e-03
-4.64616000 5.16195000e-03
-4.61616000 5.27500000e-03
-4.58616000 5.39492000e-03
-4.55616000 5.52243000e-03
-4.52616000 5.65835000e-03
-4.49616000 5.80364000e-03
-4.46616000 5.95939000e-03
-4.43616000 6.12687000e-03
-4.40616000 6.30759000e-03
-4.37031000 6.54334000e-03
-4.34031000 6.75976000e-03
-4.31031000 6.99632000e-03
-4.28031000 7.25615000e-03
-4.25031000 7.54304000e-03
-4.22031000 7.86166000e-03
-4.19031000 8.21779000e-03
-4.16031000 8.61865000e-03
-4.13031000 9.07339000e-03
-4.10031000 9.59373000e-03
-4.07031000 1.01949000e-02
-4.04031000 1.08971000e-02
-4.01031000 1.17273000e-02
-3.98031000 1.27223000e-02
-3.95031000 1.39339000e-02
-3.92031000 1.54359000e-02
-3.89031000 1.73371000e-02
-3.86031000 1.98024000e-02
-3.83031000 2.30922000e-02
-3.79447000 2.87204000e-02
-3.76447000 3.57777000e-02
-3.73447000 4.65845000e-02
-3.70447000 6.42556000e-02
-3.67447000 9.55523000e-02
-3.64447000 1.55906000e-01
-3.61447000 2.74939000e-01
-3.58447000 4.31875000e-01
-3.55447000 3.93315000e-01
-3.52447000 2.33111000e-01
-3.49447000 1.35291000e-01
-3.46447000 8.65366000e-02
-3.43447000 6.09601000e-02
-3.40447000 4.64526000e-02
-3.37447000 3.76762000e-02
-3.34447000 3.21198000e-02
-3.31447000 2.85085000e-02
-3.28447000 2.61500000e-02
-3.25447000 2.46480000e-02
-3.21863000 2.36538000e-02
-3.18863000 2.33313000e-02
-3.15863000 2.33877000e-02
-3.12863000 2.37798000e-02
-3.09863000 2.44897000e-02
-3.06863000 2.55201000e-02
-3.03863000 2.68925000e-02
-3.00863000 2.86485000e-02
-2.97863000 3.08526000e-02
-2.94863000 3.35996000e-02
-2.91863000 3.70244000e-02
-2.88863000 4.13201000e-02
-2.85863000 4.67657000e-02
-2.82863000 5.37730000e-02
-2.79863000 6.29663000e-02
-2.76863000 7.53241000e-02
-2.73863000 9.24444000e-02
-2.70863000 1.17067000e-01
-2.67863000 1.54171000e-01
-2.64279000 2.29013000e-01
-2.61279000 3.43298000e-01
-2.58279000 5.60518000e-01
-2.55279000 9.93655000e-01
-2.52279000 1.66659000e+00
-2.49279000 1.73514000e+00
-2.46279000 1.06982000e+00
-2.43279000 6.02533000e-01
-2.40279000 3.68009000e-01
-2.37279000 2.46697000e-01
-2.34279000 1.78792000e-01
-2.31279000 1.38098000e-01
-2.28279000 1.12506000e-01
-2.25279000 9.59893000e-02
-2.22279000 8.53550000e-02
-2.19279000 7.88475000e-02
-2.16279000 7.55067000e-02
-2.13279000 7.48674000e-02
-2.10279000 7.68290000e-02
-2.06694000 8.29459000e-02
-2.03694000 9.20555000e-02
-2.00694000 1.06312000e-01
-1.97694000 1.28428000e-01
-1.94694000 1.63623000e-01
-1.91694000 2.22595000e-01
-1.88694000 3.28924000e-01
-1.85694000 5.35947000e-01
-1.82694000 9.28480000e-01
-1.79694000 1.31031000e+00
-1.76694000 1.05230000e+00
-1.73694000 6.61208000e-01
-1.70694000 4.75673000e-01
-1.67694000 4.36090000e-01
-1.64694000 5.14693000e-01
-1.61694000 7.58831000e-01
-1.58694000 1.24980000e+00
-1.55694000 1.58562000e+00
-1.52694000 1.12562000e+00
-1.49110000 5.75040000e-01
-1.46110000 3.50504000e-01
-1.43110000 2.33638000e-01
-1.40110000 1.67408000e-01
-1.37110000 1.26738000e-01
-1.34110000 1.00091000e-01
-1.31110000 8.17276000e-02
-1.28110000 6.85800000e-02
-1.25110000 5.89181000e-02
-1.22110000 5.17496000e-02
-1.19110000 4.65639000e-02
-1.16110000 4.32702000e-02
-1.13110000 4.18989000e-02
-1.10110000 4.04099000e-02
-1.07110000 3.77262000e-02
-1.04110000 3.75847000e-02
-1.01110000 3.94998000e-02
-0.98110000 3.59970000e-02
-0.95110000 2.96601000e-02
-0.91525800 2.49464000e-02
-0.88525800 2.26702000e-02
-0.85525800 2.11527000e-02
-0.82525800 2.00815000e-02
-0.79525800 1.93217000e-02
-0.76525800 1.88220000e-02
-0.73525800 1.85830000e-02
-0.70525800 1.86555000e-02
-0.67525800 1.91652000e-02
-0.64525800 2.03817000e-02
-0.61525800 2.28944000e-02
-0.58525800 2.80523000e-02
-0.55525800 3.87738000e-02
-0.52525800 5.69011000e-02
-0.49525800 6.21932000e-02
-0.46525800 4.41237000e-02
-0.43525800 2.99007000e-02
-0.40525800 2.26030000e-02
-0.37525800 1.87768000e-02
-0.33941500 1.62728000e-02
-0.30941500 1.50269000e-02
-0.27941500 1.41995000e-02
-0.24941500 1.36311000e-02
-0.21941500 1.32382000e-02
-0.18941500 1.29775000e-02
-0.15941500 1.28314000e-02
-0.12941500 1.28051000e-02
-0.09941500 1.29358000e-02
-0.06941500 1.33232000e-02
-0.03941500 1.42056000e-02
-0.00941504 1.59848000e-02
0.02058500 1.79207000e-02
0.05058500 1.72090000e-02
0.08058500 1.61796000e-02
0.11058500 1.62965000e-02
0.14058500 1.55678000e-02
0.17058500 1.42851000e-02
0.20058500 1.36370000e-02
0.23642700 1.35126000e-02
0.26642700 1.37978000e-02
0.29642700 1.44979000e-02
0.32642700 1.59137000e-02
0.35642700 1.86831000e-02
0.38642700 2.24187000e-02
0.41642700 2.20101000e-02
0.44642700 1.88764000e-02
0.47642700 1.72210000e-02
0.50642700 1.68309000e-02
0.53642700 1.71982000e-02
0.56642700 1.81728000e-02
0.59642700 1.98431000e-02
0.62642700 2.24290000e-02
0.65642700 2.63899000e-02
0.68642700 3.33076000e-02
0.71642700 4.64417000e-02
0.74642700 7.08312000e-02
0.77642700 1.00057000e-01
