# E(MeV)  S_NSDRNSDR(K=0) for Xe139_DDPCX
-4.94616000 2.71528000e-01
-4.91616000 3.62062000e-01
-4.88616000 5.01900000e-01
-4.85616000 7.32477000e-01
-4.82616000 1.14411000e+00
-4.79616000 1.94290000e+00
-4.76616000 3.51296000e+00
-4.73616000 5.47530000e+00
-4.70616000 4.80492000e+00
-4.67616000 2.77052000e+00
-4.64616000 1.56059000e+00
-4.61616000 9.55505000e-01
-4.58616000 6.34622000e-01
-4.55616000 4.49761000e-01
-4.52616000 3.35430000e-01
-4.49616000 2.60667000e-01
-4.46616000 2.09661000e-01
-4.43616000 1.73776000e-01
-4.40616000 1.48026000e-01
-4.37031000 1.26450000e-01
-4.34031000 1.14020000e-01
-4.31031000 1.05615000e-01
-4.28031000 1.00700000e-01
-4.25031000 9.91397000e-02
-4.22031000 1.01221000e-01
-4.19031000 1.07807000e-01
-4.16031000 1.20715000e-01
-4.13031000 1.43592000e-01
-4.10031000 1.83971000e-01
-4.07031000 2.58395000e-01
-4.04031000 4.04768000e-01
-4.01031000 6.95557000e-01
-3.98031000 1.07610000e+00
-3.95031000 9.74829000e-01
-3.92031000 5.83856000e-01
-3.89031000 3.46584000e-01
-3.86031000 2.28636000e-01
-3.83031000 1.67223000e-01
-3.79447000 1.28363000e-01
-3.76447000 1.10630000e-01
-3.73447000 1.00597000e-01
-3.70447000 9.56897000e-02
-3.67447000 9.46378000e-02
-3.64447000 9.69046000e-02
-3.61447000 1.02459000e-01
-3.58447000 1.11723000e-01
-3.55447000 1.25656000e-01
-3.52447000 1.46009000e-01
-3.49447000 1.75876000e-01
-3.46447000 2.20858000e-01
-3.43447000 2.91641000e-01
-3.40447000 4.10102000e-01
-3.37447000 6.24506000e-01
-3.34447000 1.04443000e+00
-3.31447000 1.84831000e+00
-3.28447000 2.65412000e+00
-3.25447000 2.11812000e+00
-3.21863000 1.14167000e+00
-3.18863000 7.74555000e-01
-3.15863000 6.40988000e-01
-3.12863000 5.12925000e-01
-3.09863000 3.69450000e-01
-3.06863000 2.84356000e-01
-3.03863000 2.42199000e-01
-3.00863000 2.25268000e-01
-2.97863000 2.26084000e-01
-2.94863000 2.43251000e-01
-2.91863000 2.79959000e-01
-2.88863000 3.45238000e-01
-2.85863000 4.58926000e-01
-2.82863000 6.64825000e-01
-2.79863000 1.06351000e+00
-2.76863000 1.86317000e+00
-2.73863000 3.07984000e+00
-2.70863000 3.13250000e+00
-2.67863000 1.91989000e+00
-2.64279000 9.87421000e-01
-2.61279000 6.26808000e-01
-2.58279000 4.40965000e-01
-2.55279000 3.42515000e-01
-2.52279000 2.96839000e-01
-2.49279000 2.96588000e-01
-2.46279000 3.55355000e-01
-2.43279000 4.66778000e-01
-2.40279000 4.51185000e-01
-2.37279000 3.10079000e-01
-2.34279000 2.18189000e-01
-2.31279000 1.76715000e-01
-2.28279000 1.66210000e-01
-2.25279000 1.78041000e-01
-2.22279000 1.90809000e-01
-2.19279000 2.09870000e-01
-2.16279000 2.77078000e-01
-2.13279000 3.63578000e-01
-2.10279000 3.15472000e-01
-2.06694000 2.07890000e-01
-2.03694000 1.72958000e-01
-2.00694000 1.76793000e-01
-1.97694000 1.93957000e-01
-1.94694000 1.87360000e-01
-1.91694000 1.92402000e-01
-1.88694000 2.37907000e-01
-1.85694000 3.50304000e-01
-1.82694000 5.84264000e-01
-1.79694000 8.75058000e-01
-1.76694000 7.62417000e-01
-1.73694000 4.52691000e-01
-1.70694000 2.69462000e-01
-1.67694000 1.77275000e-01
-1.64694000 1.27953000e-01
-1.61694000 9.93342000e-02
-1.58694000 8.16187000e-02
-1.55694000 6.97800000e-02
-1.52694000 6.11640000e-02
-1.49110000 5.40072000e-02
-1.46110000 4.98625000e-02
-1.43110000 4.68765000e-02
-1.40110000 4.47617000e-02
-1.37110000 4.33515000e-02
-1.34110000 4.25603000e-02
-1.31110000 4.23684000e-02
-1.28110000 4.28236000e-02
-1.25110000 4.40626000e-02
-1.22110000 4.63652000e-02
-1.19110000 5.02758000e-02
-1.16110000 5.68864000e-02
-1.13110000 6.85267000e-02
-1.10110000 9.04410000e-02
-1.07110000 1.33134000e-01
-1.04110000 1.95535000e-01
-1.01110000 2.04919000e-01
-0.98110000 1.77344000e-01
-0.95110000 1.75464000e-01
-0.91525800 1.41635000e-01
-0.88525800 1.10150000e-01
-0.85525800 1.00344000e-01
-0.82525800 1.09101000e-01
-0.79525800 1.40668000e-01
-0.76525800 2.12310000e-01
-0.73525800 3.26585000e-01
-0.70525800 3.35824000e-01
-0.67525800 2.19793000e-01
-0.64525800 1.38985000e-01
-0.61525800 9.86914000e-02
-0.58525800 7.82381000e-02
-0.55525800 6.73329000e-02
-0.52525800 6.15075000e-02
-0.49525800 5.87704000e-02
-0.46525800 5.82434000e-02
-0.43525800 5.94612000e-02
-0.40525800 6.21567000e-02
-0.37525800 6.70824000e-02
-0.33941500 7.78351000e-02
-0.30941500 9.43333000e-02
-0.27941500 1.24926000e-01
-0.24941500 1.78715000e-01
-0.21941500 2.21756000e-01
-0.18941500 1.98766000e-01
-0.15941500 1.82694000e-01
-0.12941500 1.91890000e-01
-0.09941500 2.03734000e-01
-0.06941500 2.37363000e-01
-0.03941500 3.15653000e-01
-0.00941504 4.71772000e-01
0.02058500 7.68031000e-01
0.05058500 1.28530000e+00
0.08058500 1.79634000e+00
0.11058500 1.43580000e+00
0.14058500 8.45501000e-01
0.17058500 5.08642000e-01
0.20058500 3.42416000e-01
0.23642700 2.55394000e-01
0.26642700 2.05020000e-01
0.29642700 1.54344000e-01
0.32642700 1.20522000e-01
0.35642700 9.96098000e-02
0.38642700 8.60809000e-02
0.41642700 7.70650000e-02
0.44642700 7.11908000e-02
0.47642700 6.79267000e-02
0.50642700 6.74481000e-02
0.53642700 7.09777000e-02
0.56642700 8.17962000e-02
0.59642700 1.04676000e-01
0.62642700 1.23940000e-01
0.65642700 1.04400000e-01
0.68642700 7.86686000e-02
0.71642700 6.48726000e-02
0.74642700 5.85598000e-02
0.77642700 5.62904000e-02
