# E(MeV)  S_GAMTGAMT(K=1) for Xe139_DDPCX
-4.94616000 3.27899000e-03
-4.91616000 3.31675000e-03
-4.88616000 3.35580000e-03
-4.85616000 3.39622000e-03
-4.82616000 3.43809000e-03
-4.79616000 3.48154000e-03
-4.76616000 3.52666000e-03
-4.73616000 3.57359000e-03
-4.70616000 3.62246000e-03
-4.67616000 3.67343000e-03
-4.64616000 3.72668000e-03
-4.61616000 3.78240000e-03
-4.58616000 3.84081000e-03
-4.55616000 3.90217000e-03
-4.52616000 3.96674000e-03
-4.49616000 4.03486000e-03
-4.46616000 4.10690000e-03
-4.43616000 4.18327000e-03
-4.40616000 4.26448000e-03
-4.37031000 4.36865000e-03
-4.34031000 4.46260000e-03
-4.31031000 4.56359000e-03
-4.28031000 4.67258000e-03
-4.25031000 4.79071000e-03
-4.22031000 4.91940000e-03
-4.19031000 5.06032000e-03
-4.16031000 5.21554000e-03
-4.13031000 5.38764000e-03
-4.10031000 5.57983000e-03
-4.07031000 5.79615000e-03
-4.04031000 6.04183000e-03
-4.01031000 6.32362000e-03
-3.98031000 6.65044000e-03
-3.95031000 7.03429000e-03
-3.92031000 7.49154000e-03
-3.89031000 8.04512000e-03
-3.86031000 8.72786000e-03
-3.83031000 9.58810000e-03
-3.79447000 1.09539000e-02
-3.76447000 1.25229000e-02
-3.73447000 1.47014000e-02
-3.70447000 1.78624000e-02
-3.67447000 2.27047000e-02
-3.64447000 3.06362000e-02
-3.61447000 4.47258000e-02
-3.58447000 7.19760000e-02
-3.55447000 1.25420000e-01
-3.52447000 1.92054000e-01
-3.49447000 1.69262000e-01
-3.46447000 1.00479000e-01
-3.43447000 5.97072000e-02
-3.40447000 3.94457000e-02
-3.37447000 2.88405000e-02
-3.34447000 2.28836000e-02
-3.31447000 1.93699000e-02
-3.28447000 1.72686000e-02
-3.25447000 1.60705000e-02
-3.21863000 1.54829000e-02
-3.18863000 1.55907000e-02
-3.15863000 1.62754000e-02
-3.12863000 1.77120000e-02
-3.09863000 2.03222000e-02
-3.06863000 2.50592000e-02
-3.03863000 3.41261000e-02
-3.00863000 5.22150000e-02
-2.97863000 8.12111000e-02
-2.94863000 8.69868000e-02
-2.91863000 5.92988000e-02
-2.88863000 3.91840000e-02
-2.85863000 2.94567000e-02
-2.82863000 2.49202000e-02
-2.79863000 2.29324000e-02
-2.76863000 2.23658000e-02
-2.73863000 2.27412000e-02
-2.70863000 2.38757000e-02
-2.67863000 2.57507000e-02
-2.64279000 2.91155000e-02
-2.61279000 3.31676000e-02
-2.58279000 3.88344000e-02
-2.55279000 4.69303000e-02
-2.52279000 5.89142000e-02
-2.49279000 7.75485000e-02
-2.46279000 1.08449000e-01
-2.43279000 1.63939000e-01
-2.40279000 2.72108000e-01
-2.37279000 4.82472000e-01
-2.34279000 7.21367000e-01
-2.31279000 6.03229000e-01
-2.28279000 3.49689000e-01
-2.25279000 2.04747000e-01
-2.22279000 1.32567000e-01
-2.19279000 9.44571000e-02
-2.16279000 7.28294000e-02
-2.13279000 5.98969000e-02
-2.10279000 5.19749000e-02
-2.06694000 4.65292000e-02
-2.03694000 4.42307000e-02
-2.00694000 4.34781000e-02
-1.97694000 4.40457000e-02
-1.94694000 4.58763000e-02
-1.91694000 4.90576000e-02
-1.88694000 5.38335000e-02
-1.85694000 6.06543000e-02
-1.82694000 7.02854000e-02
-1.79694000 8.40256000e-02
-1.76694000 1.04149000e-01
-1.73694000 1.34855000e-01
-1.70694000 1.84449000e-01
-1.67694000 2.70680000e-01
-1.64694000 4.33695000e-01
-1.61694000 7.53148000e-01
-1.58694000 1.20663000e+00
-1.55694000 1.20013000e+00
-1.52694000 8.58597000e-01
-1.49110000 7.67643000e-01
-1.46110000 8.00878000e-01
-1.43110000 5.80719000e-01
-1.40110000 3.57253000e-01
-1.37110000 2.37983000e-01
-1.34110000 1.74609000e-01
-1.31110000 1.38304000e-01
-1.28110000 1.19334000e-01
-1.25110000 1.12319000e-01
-1.22110000 1.15646000e-01
-1.19110000 1.31345000e-01
-1.16110000 1.66760000e-01
-1.13110000 2.40148000e-01
-1.10110000 3.87499000e-01
-1.07110000 5.94962000e-01
-1.04110000 6.47400000e-01
-1.01110000 6.01411000e-01
-0.98110000 4.77546000e-01
-0.95110000 3.48531000e-01
-0.91525800 2.14235000e-01
-0.88525800 1.45076000e-01
-0.85525800 1.10591000e-01
-0.82525800 9.74883000e-02
-0.79525800 1.03014000e-01
-0.76525800 1.27180000e-01
-0.73525800 1.32450000e-01
-0.70525800 9.61023000e-02
-0.67525800 6.81526000e-02
-0.64525800 5.59465000e-02
-0.61525800 5.43538000e-02
-0.58525800 5.43330000e-02
-0.55525800 4.39326000e-02
-0.52525800 3.37197000e-02
-0.49525800 2.77258000e-02
-0.46525800 2.42177000e-02
-0.43525800 2.21104000e-02
-0.40525800 2.09398000e-02
-0.37525800 1.98924000e-02
-0.33941500 1.80465000e-02
-0.30941500 1.68515000e-02
-0.27941500 1.60257000e-02
-0.24941500 1.54425000e-02
-0.21941500 1.50472000e-02
-0.18941500 1.48440000e-02
-0.15941500 1.49075000e-02
-0.12941500 1.54236000e-02
-0.09941500 1.64302000e-02
-0.06941500 1.64715000e-02
-0.03941500 1.53408000e-02
-0.00941504 1.46712000e-02
0.02058500 1.45685000e-02
0.05058500 1.49167000e-02
0.08058500 1.57847000e-02
0.11058500 1.73552000e-02
0.14058500 1.98558000e-02
0.17058500 2.45724000e-02
0.20058500 3.29277000e-02
0.23642700 4.60325000e-02
0.26642700 4.56860000e-02
0.29642700 3.36278000e-02
0.32642700 2.63818000e-02
0.35642700 2.47692000e-02
0.38642700 2.79005000e-02
0.41642700 3.38547000e-02
0.44642700 3.20051000e-02
0.47642700 2.52886000e-02
0.50642700 2.11706000e-02
0.53642700 1.96022000e-02
0.56642700 2.02112000e-02
0.59642700 2.04694000e-02
0.62642700 1.85095000e-02
0.65642700 1.71891000e-02
0.68642700 1.67845000e-02
0.71642700 1.67011000e-02
0.74642700 1.71908000e-02
0.77642700 1.84923000e-02
