# E(MeV)  S_GAMTGAMT(K=0) for Yb211_DDPCX
-13.59560000 3.37264000e-03
-13.56560000 3.22841000e-03
-13.53560000 3.01971000e-03
-13.50560000 2.91120000e-03
-13.47560000 2.86214000e-03
-13.44560000 2.84076000e-03
-13.41560000 2.83290000e-03
-13.38560000 2.83222000e-03
-13.35560000 2.83566000e-03
-13.32560000 2.84164000e-03
-13.29560000 2.84927000e-03
-13.26560000 2.85803000e-03
-13.23560000 2.86761000e-03
-13.20560000 2.87780000e-03
-13.17560000 2.88847000e-03
-13.14560000 2.89952000e-03
-13.11560000 2.91089000e-03
-13.08560000 2.92254000e-03
-13.05560000 2.93443000e-03
-13.02560000 2.94654000e-03
-12.99560000 2.95885000e-03
-12.96560000 2.97136000e-03
-12.93560000 2.98405000e-03
-12.90560000 2.99692000e-03
-12.87560000 3.00996000e-03
-12.84560000 3.02318000e-03
-12.81560000 3.03658000e-03
-12.78560000 3.05015000e-03
-12.75560000 3.06390000e-03
-12.72560000 3.07784000e-03
-12.69560000 3.09197000e-03
-12.66560000 3.10630000e-03
-12.63560000 3.12083000e-03
-12.60560000 3.13559000e-03
-12.57560000 3.15057000e-03
-12.54560000 3.16579000e-03
-12.51560000 3.18127000e-03
-12.48560000 3.19703000e-03
-12.45560000 3.21310000e-03
-12.42560000 3.22949000e-03
-12.39560000 3.24625000e-03
-12.36560000 3.26342000e-03
-12.33560000 3.28104000e-03
-12.30560000 3.29919000e-03
-12.27560000 3.31794000e-03
-12.24560000 3.33741000e-03
-12.21560000 3.35773000e-03
-12.18560000 3.37909000e-03
-12.15480000 3.40239000e-03
-12.12480000 3.42680000e-03
-12.09480000 3.45348000e-03
-12.06480000 3.48325000e-03
-12.03480000 3.51746000e-03
-12.00480000 3.55831000e-03
-11.97480000 3.60968000e-03
-11.94480000 3.67878000e-03
-11.91480000 3.78015000e-03
-11.88480000 3.94549000e-03
-11.85480000 4.24702000e-03
-11.82480000 4.81719000e-03
-11.79480000 5.50655000e-03
-11.76480000 5.27536000e-03
-11.73480000 4.60943000e-03
-11.70480000 4.23155000e-03
-11.67480000 4.05989000e-03
-11.64480000 3.98699000e-03
-11.61480000 3.96417000e-03
-11.58480000 3.97114000e-03
-11.55480000 4.00031000e-03
-11.52480000 4.05149000e-03
-11.49480000 4.13194000e-03
-11.46480000 4.26136000e-03
-11.43480000 4.47612000e-03
-11.40480000 4.74497000e-03
-11.37480000 4.87539000e-03
-11.34480000 5.07635000e-03
-11.31480000 5.63799000e-03
-11.28480000 6.61060000e-03
-11.25480000 7.01772000e-03
-11.22480000 6.69668000e-03
-11.19480000 6.50733000e-03
-11.16480000 6.07251000e-03
-11.13480000 5.89620000e-03
-11.10480000 6.19387000e-03
-11.07480000 7.10913000e-03
-11.04480000 9.06705000e-03
-11.01480000 1.17531000e-02
-10.98480000 1.17738000e-02
-10.95480000 9.49306000e-03
-10.92480000 7.60536000e-03
-10.89480000 6.75819000e-03
-10.86480000 6.58380000e-03
-10.83480000 6.55760000e-03
-10.80480000 6.40590000e-03
-10.77480000 6.47630000e-03
-10.74480000 6.89543000e-03
-10.71400000 7.35665000e-03
-10.68400000 7.80753000e-03
-10.65400000 8.88811000e-03
-10.62400000 1.11737000e-02
-10.59400000 1.58544000e-02
-10.56400000 2.44837000e-02
-10.53400000 3.06368000e-02
-10.50400000 2.38470000e-02
-10.47400000 1.71036000e-02
-10.44400000 1.44330000e-02
-10.41400000 1.19012000e-02
-10.38400000 9.29049000e-03
-10.35400000 7.74258000e-03
-10.32400000 6.85098000e-03
-10.29400000 6.31845000e-03
-10.26400000 5.99115000e-03
-10.23400000 5.78234000e-03
-10.20400000 5.64646000e-03
-10.17400000 5.55862000e-03
-10.14400000 5.50432000e-03
-10.11400000 5.47482000e-03
-10.08400000 5.46471000e-03
-10.05400000 5.47075000e-03
-10.02400000 5.49124000e-03
-9.99401000 5.52587000e-03
-9.96401000 5.57581000e-03
-9.93401000 5.64432000e-03
-9.90401000 5.73774000e-03
-9.87401000 5.86646000e-03
-9.84401000 6.05785000e-03
-9.81401000 6.37227000e-03
-9.78401000 6.85765000e-03
-9.75401000 7.20670000e-03
-9.72401000 7.29414000e-03
-9.69401000 7.70047000e-03
-9.66401000 8.66122000e-03
-9.63401000 1.03838000e-02
-9.60401000 1.29383000e-02
-9.57401000 1.32185000e-02
-9.54401000 1.11810000e-02
-9.51401000 9.72046000e-03
-9.48401000 9.00328000e-03
-9.45401000 8.97621000e-03
-9.42401000 9.68292000e-03
-9.39401000 1.14739000e-02
-9.36401000 1.50154000e-02
-9.33401000 1.82144000e-02
-9.30401000 1.57388000e-02
-9.27323000 1.24521000e-02
-9.24323000 1.11923000e-02
-9.21323000 1.13502000e-02
-9.18323000 1.26537000e-02
-9.15323000 1.50770000e-02
-9.12323000 1.67690000e-02
-9.09323000 1.71224000e-02
-9.06323000 1.72687000e-02
-9.03323000 1.47752000e-02
-9.00323000 1.27080000e-02
-8.97323000 1.20467000e-02
-8.94323000 1.23628000e-02
-8.91323000 1.35241000e-02
-8.88323000 1.54748000e-02
-8.85323000 1.84651000e-02
-8.82323000 2.35527000e-02
-8.79323000 3.19788000e-02
-8.76323000 4.88144000e-02
-8.73323000 7.46951000e-02
-8.70323000 8.30525000e-02
-8.67323000 5.90477000e-02
-8.64323000 3.65240000e-02
-8.61323000 2.47414000e-02
-8.58323000 1.87329000e-02
-8.55323000 1.54608000e-02
-8.52323000 1.35892000e-02
-8.49323000 1.25273000e-02
-8.46323000 1.20239000e-02
-8.43323000 1.18235000e-02
-8.40323000 1.14962000e-02
-8.37323000 1.12778000e-02
-8.34323000 1.11282000e-02
-8.31323000 1.10184000e-02
-8.28323000 1.11725000e-02
-8.25323000 1.16948000e-02
-8.22323000 1.27767000e-02
-8.19323000 1.41566000e-02
-8.16323000 1.44577000e-02
-8.13323000 1.48138000e-02
-8.10323000 1.53864000e-02
-8.07323000 1.47476000e-02
-8.04323000 1.44491000e-02
-8.01323000 1.52083000e-02
-7.98323000 1.73221000e-02
-7.95323000 2.12847000e-02
-7.92323000 2.43639000e-02
-7.89323000 2.32846000e-02
-7.86323000 2.37683000e-02
-7.83244000 2.57388000e-02
-7.80244000 2.43685000e-02
-7.77244000 2.31417000e-02
-7.74244000 2.24664000e-02
-7.71244000 2.24831000e-02
-7.68244000 2.42623000e-02
-7.65244000 2.67204000e-02
-7.62244000 2.88769000e-02
-7.59244000 3.16528000e-02
-7.56244000 3.64890000e-02
-7.53244000 4.56540000e-02
-7.50244000 6.14058000e-02
-7.47244000 8.37015000e-02
-7.44244000 1.19805000e-01
-7.41244000 1.95417000e-01
-7.38244000 3.07244000e-01
-7.35244000 3.01970000e-01
-7.32244000 1.91548000e-01
-7.29244000 1.20888000e-01
-7.26244000 8.21090000e-02
-7.23244000 5.84512000e-02
-7.20244000 4.52141000e-02
-7.17244000 3.79053000e-02
-7.14244000 3.39425000e-02
-7.11244000 3.13701000e-02
-7.08244000 2.97756000e-02
-7.05244000 2.97548000e-02
-7.02244000 3.02096000e-02
-6.99244000 3.05875000e-02
-6.96244000 3.16228000e-02
-6.93244000 3.30514000e-02
-6.90244000 3.17345000e-02
-6.87244000 3.00247000e-02
-6.84244000 2.86536000e-02
-6.81244000 2.80448000e-02
-6.78244000 2.83025000e-02
-6.75244000 2.92012000e-02
-6.72244000 3.06587000e-02
-6.69244000 3.24144000e-02
-6.66244000 3.42452000e-02
-6.63244000 3.68514000e-02
-6.60244000 4.06745000e-02
-6.57244000 4.46904000e-02
-6.54244000 4.76743000e-02
-6.51244000 5.22280000e-02
-6.48244000 6.01649000e-02
-6.45244000 7.31614000e-02
-6.42244000 8.73072000e-02
-6.39166000 9.03814000e-02
-6.36166000 9.32683000e-02
-6.33166000 1.03625000e-01
-6.30166000 1.21998000e-01
-6.27166000 1.50496000e-01
-6.24166000 1.94767000e-01
-6.21166000 2.66887000e-01
-6.18166000 3.93066000e-01
-6.15166000 6.27411000e-01
-6.12166000 1.03103000e+00
-6.09166000 1.48364000e+00
-6.06166000 1.78793000e+00
-6.03166000 1.83782000e+00
-6.00166000 1.27530000e+00
-5.97166000 7.74115000e-01
-5.94166000 5.01715000e-01
-5.91166000 3.73554000e-01
-5.88166000 3.34244000e-01
-5.85166000 3.27557000e-01
-5.82166000 2.85954000e-01
-5.79166000 2.19143000e-01
-5.76166000 1.70823000e-01
-5.73166000 1.45978000e-01
-5.70166000 1.35190000e-01
-5.67166000 1.33606000e-01
-5.64166000 1.39802000e-01
-5.61166000 1.54792000e-01
-5.58166000 1.83257000e-01
-5.55166000 2.35950000e-01
-5.52166000 3.36903000e-01
-5.49166000 5.30017000e-01
-5.46166000 7.71928000e-01
-5.43166000 7.15135000e-01
-5.40166000 5.14710000e-01
-5.37166000 4.30474000e-01
-5.34166000 4.40271000e-01
-5.31166000 4.94782000e-01
-5.28166000 6.02549000e-01
-5.25166000 8.35897000e-01
-5.22166000 1.33318000e+00
-5.19166000 2.29634000e+00
-5.16166000 3.30036000e+00
-5.13166000 2.66348000e+00
-5.10166000 1.53556000e+00
-5.07166000 9.05484000e-01
-5.04166000 5.94386000e-01
-5.01166000 4.36327000e-01
-4.98166000 3.56599000e-01
-4.95087000 3.06703000e-01
-4.92087000 2.70680000e-01
-4.89087000 2.60704000e-01
-4.86087000 2.81981000e-01
-4.83087000 3.48995000e-01
-4.80087000 4.93933000e-01
-4.77087000 7.11127000e-01
-4.74087000 8.85577000e-01
-4.71087000 1.05414000e+00
-4.68087000 9.41857000e-01
-4.65087000 6.42723000e-01
-4.62087000 5.00350000e-01
-4.59087000 4.39727000e-01
-4.56087000 3.29894000e-01
-4.53087000 2.37688000e-01
-4.50087000 1.89804000e-01
-4.47087000 1.70395000e-01
-4.44087000 1.70405000e-01
-4.41087000 1.76348000e-01
-4.38087000 1.80885000e-01
-4.35087000 1.82372000e-01
-4.32087000 1.80607000e-01
-4.29087000 1.68483000e-01
-4.26087000 1.66315000e-01
-4.23087000 1.77974000e-01
-4.20087000 2.02001000e-01
-4.17087000 2.41351000e-01
-4.14087000 3.04383000e-01
-4.11087000 4.02301000e-01
-4.08087000 5.50861000e-01
-4.05087000 7.66919000e-01
-4.02087000 1.14305000e+00
-3.99087000 1.92273000e+00
-3.96087000 3.30103000e+00
-3.93087000 3.98597000e+00
-3.90087000 2.70953000e+00
-3.87087000 1.54855000e+00
-3.84087000 9.68972000e-01
-3.81087000 6.85220000e-01
-3.78087000 5.20225000e-01
-3.75087000 3.90645000e-01
-3.72087000 2.85679000e-01
-3.69087000 2.18044000e-01
-3.66087000 1.76042000e-01
-3.63087000 1.49255000e-01
-3.60087000 1.30037000e-01
-3.57087000 1.14412000e-01
-3.54087000 1.03846000e-01
-3.51009000 9.33159000e-02
-3.48009000 8.35317000e-02
-3.45009000 7.65325000e-02
-3.42009000 7.11649000e-02
-3.39009000 6.85714000e-02
-3.36009000 6.73454000e-02
-3.33009000 6.52349000e-02
-3.30009000 6.12245000e-02
-3.27009000 5.72429000e-02
-3.24009000 5.75765000e-02
-3.21009000 6.29949000e-02
-3.18009000 7.04497000e-02
-3.15009000 7.16969000e-02
-3.12009000 6.08430000e-02
-3.09009000 5.22698000e-02
-3.06009000 4.79831000e-02
-3.03009000 4.36358000e-02
-3.00009000 4.00894000e-02
-2.97009000 3.79001000e-02
-2.94009000 3.68109000e-02
-2.91009000 3.57723000e-02
-2.88009000 3.47952000e-02
-2.85009000 3.44700000e-02
-2.82009000 3.47805000e-02
-2.79009000 3.56841000e-02
-2.76009000 3.77102000e-02
-2.73009000 4.21315000e-02
-2.70009000 4.88019000e-02
-2.67009000 5.00156000e-02
-2.64009000 4.37651000e-02
-2.61009000 3.98572000e-02
-2.58009000 3.96138000e-02
-2.55009000 4.14011000e-02
-2.52009000 4.12872000e-02
-2.49009000 4.06690000e-02
-2.46009000 4.20993000e-02
-2.43009000 4.54907000e-02
-2.40009000 4.79259000e-02
-2.37009000 5.11619000e-02
-2.34009000 5.32751000e-02
-2.31009000 5.17606000e-02
-2.28009000 5.29325000e-02
-2.25009000 5.62558000e-02
-2.22009000 5.59869000e-02
-2.19009000 5.54079000e-02
-2.16009000 5.82298000e-02
-2.13009000 6.43297000e-02
-2.10009000 7.21381000e-02
-2.06930000 8.47671000e-02
-2.03930000 1.08897000e-01
-2.00930000 1.54701000e-01
-1.97930000 2.30171000e-01
-1.94930000 2.83956000e-01
-1.91930000 2.41925000e-01
-1.88930000 1.78735000e-01
-1.85930000 1.44705000e-01
-1.82930000 1.34757000e-01
-1.79930000 1.40889000e-01
-1.76930000 1.61806000e-01
-1.73930000 2.02331000e-01
-1.70930000 2.71316000e-01
-1.67930000 3.77368000e-01
-1.64930000 5.19448000e-01
-1.61930000 7.08652000e-01
-1.58930000 1.09191000e+00
-1.55930000 1.50636000e+00
-1.52930000 1.40046000e+00
-1.49930000 1.19215000e+00
-1.46930000 1.16099000e+00
-1.43930000 9.49882000e-01
-1.40930000 6.17006000e-01
-1.37930000 4.06753000e-01
-1.34930000 3.04033000e-01
-1.31930000 2.53448000e-01
-1.28930000 2.30960000e-01
-1.25930000 2.30897000e-01
-1.22930000 2.60861000e-01
-1.19930000 3.36348000e-01
-1.16930000 5.00781000e-01
-1.13930000 7.41956000e-01
-1.10930000 7.31929000e-01
-1.07930000 5.09087000e-01
-1.04930000 3.72226000e-01
-1.01930000 3.38448000e-01
-0.98930100 3.29226000e-01
-0.95930100 2.73172000e-01
-0.92930100 2.11021000e-01
-0.89930100 1.71478000e-01
-0.86930100 1.44558000e-01
-0.83930100 1.32472000e-01
-0.80930100 1.32471000e-01
-0.77930100 1.40411000e-01
-0.74930100 1.55969000e-01
-0.71930100 1.82524000e-01
-0.68930100 2.38386000e-01
-0.65930100 3.41337000e-01
-0.62851500 4.96402000e-01
-0.59851500 5.86555000e-01
-0.56851500 5.32289000e-01
-0.53851500 4.85178000e-01
-0.50851500 4.84459000e-01
-0.47851500 4.02341000e-01
-0.44851500 2.89489000e-01
-0.41851500 2.30508000e-01
-0.38851500 1.96800000e-01
-0.35851500 1.70916000e-01
-0.32851500 1.63560000e-01
-0.29851500 1.71226000e-01
-0.26851500 1.94705000e-01
-0.23851500 2.36990000e-01
-0.20851500 3.18427000e-01
-0.17851500 4.89197000e-01
-0.14851500 7.20337000e-01
-0.11851500 7.00891000e-01
-0.08851530 5.50774000e-01
-0.05851530 4.48835000e-01
-0.02851530 3.49046000e-01
0.00148466 3.05617000e-01
0.03148470 3.13813000e-01
0.06148470 3.80525000e-01
0.09148470 4.97221000e-01
0.12148500 5.99664000e-01
0.15148500 7.60297000e-01
0.18148500 9.65431000e-01
0.21148500 8.17447000e-01
0.24148500 5.60031000e-01
0.27148500 4.44874000e-01
0.30148500 4.38092000e-01
0.33148500 5.14550000e-01
0.36148500 5.87739000e-01
0.39148500 4.66759000e-01
0.42148500 3.33115000e-01
0.45148500 2.73821000e-01
0.48148500 2.62449000e-01
0.51148500 2.72926000e-01
0.54148500 2.94885000e-01
0.57148500 3.49003000e-01
0.60148500 4.11104000e-01
0.63148500 4.15432000e-01
0.66148500 4.50261000e-01
0.69148500 5.93320000e-01
0.72148500 9.12439000e-01
0.75148500 1.29731000e+00
0.78148500 1.17133000e+00
