# E(MeV)  S_GAMTGAMT(K=1) for Yb211_DDPCX
-13.59560000 2.78671000e-03
-13.56560000 2.80426000e-03
-13.53560000 2.81466000e-03
-13.50560000 2.83942000e-03
-13.47560000 2.88734000e-03
-13.44560000 2.97756000e-03
-13.41560000 3.14272000e-03
-13.38560000 3.30010000e-03
-13.35560000 3.19728000e-03
-13.32560000 3.04044000e-03
-13.29560000 2.95978000e-03
-13.26560000 2.92493000e-03
-13.23560000 2.91144000e-03
-13.20560000 2.90841000e-03
-13.17560000 2.91093000e-03
-13.14560000 2.91665000e-03
-13.11560000 2.92437000e-03
-13.08560000 2.93339000e-03
-13.05560000 2.94333000e-03
-13.02560000 2.95393000e-03
-12.99560000 2.96505000e-03
-12.96560000 2.97657000e-03
-12.93560000 2.98844000e-03
-12.90560000 3.00060000e-03
-12.87560000 3.01303000e-03
-12.84560000 3.02570000e-03
-12.81560000 3.03860000e-03
-12.78560000 3.05171000e-03
-12.75560000 3.06505000e-03
-12.72560000 3.07860000e-03
-12.69560000 3.09237000e-03
-12.66560000 3.10636000e-03
-12.63560000 3.12059000e-03
-12.60560000 3.13507000e-03
-12.57560000 3.14980000e-03
-12.54560000 3.16481000e-03
-12.51560000 3.18012000e-03
-12.48560000 3.19576000e-03
-12.45560000 3.21175000e-03
-12.42560000 3.22815000e-03
-12.39560000 3.24499000e-03
-12.36560000 3.26233000e-03
-12.33560000 3.28026000e-03
-12.30560000 3.29887000e-03
-12.27560000 3.31829000e-03
-12.24560000 3.33867000e-03
-12.21560000 3.36024000e-03
-12.18560000 3.38330000e-03
-12.15480000 3.40898000e-03
-12.12480000 3.43662000e-03
-12.09480000 3.46789000e-03
-12.06480000 3.50450000e-03
-12.03480000 3.54957000e-03
-12.00480000 3.60926000e-03
-11.97480000 3.69602000e-03
-11.94480000 3.82312000e-03
-11.91480000 3.94078000e-03
-11.88480000 4.02309000e-03
-11.85480000 4.20538000e-03
-11.82480000 4.60296000e-03
-11.79480000 5.35960000e-03
-11.76480000 6.14903000e-03
-11.73480000 5.93184000e-03
-11.70480000 5.23205000e-03
-11.67480000 4.90557000e-03
-11.64480000 5.01558000e-03
-11.61480000 5.59898000e-03
-11.58480000 6.47642000e-03
-11.55480000 6.27385000e-03
-11.52480000 5.39542000e-03
-11.49480000 4.92081000e-03
-11.46480000 4.79769000e-03
-11.43480000 4.92793000e-03
-11.40480000 5.35869000e-03
-11.37480000 6.27370000e-03
-11.34480000 7.78240000e-03
-11.31480000 8.67841000e-03
-11.28480000 7.62070000e-03
-11.25480000 6.64502000e-03
-11.22480000 5.75288000e-03
-11.19480000 5.07880000e-03
-11.16480000 4.72220000e-03
-11.13480000 4.54366000e-03
-11.10480000 4.45899000e-03
-11.07480000 4.43238000e-03
-11.04480000 4.45012000e-03
-11.01480000 4.50055000e-03
-10.98480000 4.59814000e-03
-10.95480000 4.80457000e-03
-10.92480000 5.21666000e-03
-10.89480000 5.76722000e-03
-10.86480000 5.69705000e-03
-10.83480000 5.25223000e-03
-10.80480000 5.05404000e-03
-10.77480000 5.07740000e-03
-10.74480000 5.21133000e-03
-10.71400000 5.40116000e-03
-10.68400000 5.46910000e-03
-10.65400000 5.61684000e-03
-10.62400000 6.06941000e-03
-10.59400000 6.85463000e-03
-10.56400000 8.06717000e-03
-10.53400000 1.00794000e-02
-10.50400000 1.08523000e-02
-10.47400000 8.80402000e-03
-10.44400000 7.14948000e-03
-10.41400000 6.44550000e-03
-10.38400000 6.16773000e-03
-10.35400000 5.87219000e-03
-10.32400000 5.65071000e-03
-10.29400000 5.56753000e-03
-10.26400000 5.60737000e-03
-10.23400000 5.76721000e-03
-10.20400000 6.09745000e-03
-10.17400000 6.73941000e-03
-10.14400000 7.85553000e-03
-10.11400000 8.65970000e-03
-10.08400000 8.31636000e-03
-10.05400000 8.35167000e-03
-10.02400000 9.22827000e-03
-9.99401000 1.04563000e-02
-9.96401000 1.11655000e-02
-9.93401000 1.26181000e-02
-9.90401000 1.48887000e-02
-9.87401000 1.50705000e-02
-9.84401000 1.25741000e-02
-9.81401000 1.08513000e-02
-9.78401000 1.10390000e-02
-9.75401000 1.32275000e-02
-9.72401000 1.61030000e-02
-9.69401000 1.49380000e-02
-9.66401000 1.27942000e-02
-9.63401000 1.24765000e-02
-9.60401000 1.20613000e-02
-9.57401000 1.04108000e-02
-9.54401000 9.24410000e-03
-9.51401000 8.64640000e-03
-9.48401000 8.04038000e-03
-9.45401000 7.78043000e-03
-9.42401000 7.97006000e-03
-9.39401000 8.72245000e-03
-9.36401000 1.03856000e-02
-9.33401000 1.25095000e-02
-9.30401000 1.22272000e-02
-9.27323000 1.11586000e-02
-9.24323000 1.06836000e-02
-9.21323000 1.01571000e-02
-9.18323000 1.01831000e-02
-9.15323000 9.76765000e-03
-9.12323000 9.14001000e-03
-9.09323000 8.70654000e-03
-9.06323000 8.53483000e-03
-9.03323000 8.68990000e-03
-9.00323000 9.34874000e-03
-8.97323000 9.99285000e-03
-8.94323000 1.00602000e-02
-8.91323000 1.04695000e-02
-8.88323000 1.14126000e-02
-8.85323000 1.31776000e-02
-8.82323000 1.59287000e-02
-8.79323000 1.64163000e-02
-8.76323000 1.60529000e-02
-8.73323000 1.87340000e-02
-8.70323000 2.44292000e-02
-8.67323000 2.47085000e-02
-8.64323000 1.85824000e-02
-8.61323000 1.43950000e-02
-8.58323000 1.24986000e-02
-8.55323000 1.18933000e-02
-8.52323000 1.13959000e-02
-8.49323000 1.08090000e-02
-8.46323000 1.06620000e-02
-8.43323000 1.09827000e-02
-8.40323000 1.17402000e-02
-8.37323000 1.25904000e-02
-8.34323000 1.35195000e-02
-8.31323000 1.53736000e-02
-8.28323000 1.89794000e-02
-8.25323000 2.59534000e-02
-8.22323000 3.57885000e-02
-8.19323000 3.75299000e-02
-8.16323000 3.52441000e-02
-8.13323000 4.00408000e-02
-8.10323000 5.02364000e-02
-8.07323000 4.75178000e-02
-8.04323000 3.56482000e-02
-8.01323000 2.92867000e-02
-7.98323000 2.96430000e-02
-7.95323000 3.56900000e-02
-7.92323000 4.00732000e-02
-7.89323000 3.99326000e-02
-7.86323000 4.48756000e-02
-7.83244000 4.38816000e-02
-7.80244000 3.27402000e-02
-7.77244000 2.47755000e-02
-7.74244000 2.11688000e-02
-7.71244000 2.01054000e-02
-7.68244000 2.05342000e-02
-7.65244000 2.21922000e-02
-7.62244000 2.39131000e-02
-7.59244000 2.54356000e-02
-7.56244000 2.83573000e-02
-7.53244000 3.47322000e-02
-7.50244000 4.74488000e-02
-7.47244000 7.33357000e-02
-7.44244000 1.20654000e-01
-7.41244000 1.52614000e-01
-7.38244000 1.14784000e-01
-7.35244000 7.60831000e-02
-7.32244000 5.69984000e-02
-7.29244000 4.74637000e-02
-7.26244000 3.80197000e-02
-7.23244000 2.97597000e-02
-7.20244000 2.44765000e-02
-7.17244000 2.16272000e-02
-7.14244000 2.03792000e-02
-7.11244000 2.02764000e-02
-7.08244000 2.11313000e-02
-7.05244000 2.24937000e-02
-7.02244000 2.41910000e-02
-6.99244000 2.68838000e-02
-6.96244000 2.95336000e-02
-6.93244000 3.14628000e-02
-6.90244000 3.17926000e-02
-6.87244000 3.21973000e-02
-6.84244000 3.46659000e-02
-6.81244000 3.95439000e-02
-6.78244000 4.07014000e-02
-6.75244000 3.52019000e-02
-6.72244000 3.01229000e-02
-6.69244000 2.87023000e-02
-6.66244000 2.85664000e-02
-6.63244000 2.97198000e-02
-6.60244000 3.42224000e-02
-6.57244000 4.13513000e-02
-6.54244000 4.60390000e-02
-6.51244000 4.77053000e-02
-6.48244000 4.16939000e-02
-6.45244000 3.41143000e-02
-6.42244000 3.04102000e-02
-6.39166000 2.94268000e-02
-6.36166000 3.01676000e-02
-6.33166000 3.22838000e-02
-6.30166000 3.56985000e-02
-6.27166000 3.99655000e-02
-6.24166000 4.47092000e-02
-6.21166000 5.16861000e-02
-6.18166000 6.34014000e-02
-6.15166000 8.34070000e-02
-6.12166000 1.18722000e-01
-6.09166000 1.81365000e-01
-6.06166000 2.85631000e-01
-6.03166000 3.82827000e-01
-6.00166000 3.53666000e-01
-5.97166000 3.36211000e-01
-5.94166000 3.92218000e-01
-5.91166000 3.51963000e-01
-5.88166000 2.46108000e-01
-5.85166000 1.72765000e-01
-5.82166000 1.17506000e-01
-5.79166000 8.48435000e-02
-5.76166000 6.70653000e-02
-5.73166000 5.71724000e-02
-5.70166000 5.17787000e-02
-5.67166000 4.81996000e-02
-5.64166000 4.51262000e-02
-5.61166000 4.35290000e-02
-5.58166000 4.32219000e-02
-5.55166000 4.36373000e-02
-5.52166000 4.44112000e-02
-5.49166000 4.54361000e-02
-5.46166000 4.69021000e-02
-5.43166000 5.01770000e-02
-5.40166000 5.64604000e-02
-5.37166000 6.48598000e-02
-5.34166000 7.12313000e-02
-5.31166000 8.00796000e-02
-5.28166000 9.82508000e-02
-5.25166000 1.34685000e-01
-5.22166000 2.08154000e-01
-5.19166000 3.25760000e-01
-5.16166000 3.47772000e-01
-5.13166000 2.36724000e-01
-5.10166000 1.58184000e-01
-5.07166000 1.21853000e-01
-5.04166000 1.04540000e-01
-5.01166000 9.44009000e-02
-4.98166000 9.11185000e-02
-4.95087000 9.13223000e-02
-4.92087000 9.17555000e-02
-4.89087000 9.59959000e-02
-4.86087000 1.06018000e-01
-4.83087000 1.21810000e-01
-4.80087000 1.36547000e-01
-4.77087000 1.44595000e-01
-4.74087000 1.57276000e-01
-4.71087000 1.77454000e-01
-4.68087000 2.08212000e-01
-4.65087000 2.48750000e-01
-4.62087000 2.96070000e-01
-4.59087000 3.69618000e-01
-4.56087000 5.01204000e-01
-4.53087000 7.45721000e-01
-4.50087000 1.20757000e+00
-4.47087000 1.85191000e+00
-4.44087000 1.96010000e+00
-4.41087000 1.74296000e+00
-4.38087000 1.83414000e+00
-4.35087000 2.30339000e+00
-4.32087000 3.18129000e+00
-4.29087000 3.43584000e+00
-4.26087000 2.28734000e+00
-4.23087000 1.35517000e+00
-4.20087000 8.63281000e-01
-4.17087000 6.05862000e-01
-4.14087000 4.67559000e-01
-4.11087000 3.93544000e-01
-4.08087000 3.57998000e-01
-4.05087000 3.47959000e-01
-4.02087000 3.48570000e-01
-3.99087000 3.58704000e-01
-3.96087000 3.96070000e-01
-3.93087000 4.67993000e-01
-3.90087000 5.99124000e-01
-3.87087000 7.79438000e-01
-3.84087000 9.09524000e-01
-3.81087000 1.16808000e+00
-3.78087000 1.72403000e+00
-3.75087000 2.11647000e+00
-3.72087000 1.77513000e+00
-3.69087000 1.26560000e+00
-3.66087000 1.02033000e+00
-3.63087000 1.02003000e+00
-3.60087000 1.22433000e+00
-3.57087000 1.71307000e+00
-3.54087000 2.76000000e+00
-3.51009000 4.75854000e+00
-3.48009000 6.05966000e+00
-3.45009000 4.37334000e+00
-3.42009000 2.59432000e+00
-3.39009000 1.62623000e+00
-3.36009000 1.12645000e+00
-3.33009000 8.73390000e-01
-3.30009000 7.65581000e-01
-3.27009000 7.53635000e-01
-3.24009000 8.32469000e-01
-3.21009000 1.05268000e+00
-3.18009000 1.55683000e+00
-3.15009000 2.50091000e+00
-3.12009000 3.03004000e+00
-3.09009000 2.20476000e+00
-3.06009000 1.45039000e+00
-3.03009000 1.00126000e+00
-3.00009000 6.72514000e-01
-2.97009000 4.77066000e-01
-2.94009000 3.67461000e-01
-2.91009000 3.05208000e-01
-2.88009000 2.76034000e-01
-2.85009000 2.70275000e-01
-2.82009000 2.54893000e-01
-2.79009000 2.28636000e-01
-2.76009000 2.20069000e-01
-2.73009000 2.22074000e-01
-2.70009000 2.22083000e-01
-2.67009000 2.08572000e-01
-2.64009000 1.94287000e-01
-2.61009000 1.81468000e-01
-2.58009000 1.70577000e-01
-2.55009000 1.70164000e-01
-2.52009000 1.77713000e-01
-2.49009000 1.94401000e-01
-2.46009000 2.24075000e-01
-2.43009000 2.74455000e-01
-2.40009000 3.48515000e-01
-2.37009000 4.30322000e-01
-2.34009000 4.96367000e-01
-2.31009000 6.17265000e-01
-2.28009000 8.80163000e-01
-2.25009000 1.42380000e+00
-2.22009000 2.45644000e+00
-2.19009000 3.49129000e+00
-2.16009000 2.91333000e+00
-2.13009000 1.73352000e+00
-2.10009000 1.02323000e+00
-2.06930000 6.48208000e-01
-2.03930000 4.56389000e-01
-2.00930000 3.50446000e-01
-1.97930000 2.97027000e-01
-1.94930000 2.84740000e-01
-1.91930000 2.91478000e-01
-1.88930000 2.70083000e-01
-1.85930000 2.35706000e-01
-1.82930000 2.21692000e-01
-1.79930000 2.24321000e-01
-1.76930000 2.16229000e-01
-1.73930000 1.72233000e-01
-1.70930000 1.40258000e-01
-1.67930000 1.26473000e-01
-1.64930000 1.20932000e-01
-1.61930000 1.24622000e-01
-1.58930000 1.44758000e-01
-1.55930000 1.87303000e-01
-1.52930000 2.32590000e-01
-1.49930000 2.18683000e-01
-1.46930000 1.71467000e-01
-1.43930000 1.43717000e-01
-1.40930000 1.42470000e-01
-1.37930000 1.70670000e-01
-1.34930000 2.01100000e-01
-1.31930000 1.72257000e-01
-1.28930000 1.35291000e-01
-1.25930000 1.18347000e-01
-1.22930000 1.07962000e-01
-1.19930000 9.67052000e-02
-1.16930000 9.38397000e-02
-1.13930000 1.02493000e-01
-1.10930000 1.06146000e-01
-1.07930000 9.48470000e-02
-1.04930000 8.31721000e-02
-1.01930000 7.49088000e-02
-0.98930100 7.26479000e-02
-0.95930100 7.50657000e-02
-0.92930100 7.55578000e-02
-0.89930100 7.17114000e-02
-0.86930100 6.98765000e-02
-0.83930100 6.96393000e-02
-0.80930100 6.99845000e-02
-0.77930100 7.24306000e-02
-0.74930100 7.71039000e-02
-0.71930100 8.32250000e-02
-0.68930100 8.75558000e-02
-0.65930100 9.23211000e-02
-0.62851500 1.01966000e-01
-0.59851500 1.15554000e-01
-0.56851500 1.33637000e-01
-0.53851500 1.66890000e-01
-0.50851500 2.14511000e-01
-0.47851500 2.55308000e-01
-0.44851500 3.17602000e-01
-0.41851500 4.24542000e-01
-0.38851500 4.85156000e-01
-0.35851500 4.30580000e-01
-0.32851500 4.05961000e-01
-0.29851500 4.83579000e-01
-0.26851500 6.75659000e-01
-0.23851500 9.17684000e-01
-0.20851500 8.78663000e-01
-0.17851500 6.69425000e-01
-0.14851500 5.24625000e-01
-0.11851500 4.57909000e-01
-0.08851530 4.30531000e-01
-0.05851530 4.06920000e-01
-0.02851530 3.79895000e-01
0.00148466 3.85823000e-01
0.03148470 4.25960000e-01
0.06148470 5.32669000e-01
0.09148470 7.16510000e-01
0.12148500 9.30516000e-01
0.15148500 8.91347000e-01
0.18148500 7.20403000e-01
0.21148500 6.82039000e-01
0.24148500 7.37716000e-01
0.27148500 7.85718000e-01
0.30148500 7.28188000e-01
0.33148500 7.15908000e-01
0.36148500 7.34731000e-01
0.39148500 7.93808000e-01
0.42148500 1.04956000e+00
0.45148500 1.53889000e+00
0.48148500 1.71792000e+00
0.51148500 1.28030000e+00
0.54148500 8.81688000e-01
0.57148500 7.07168000e-01
0.60148500 6.72865000e-01
0.63148500 7.30743000e-01
0.66148500 8.03618000e-01
0.69148500 8.38732000e-01
0.72148500 9.32984000e-01
0.75148500 9.72871000e-01
0.78148500 1.02167000e+00
